%OpenBCI Raw EXG Data
%Number of channels = 8
%Sample Rate = 250 Hz
%Board = OpenBCI_GUI$BoardCytonSerial
Sample Index, EXG Channel 0, EXG Channel 1, EXG Channel 2, EXG Channel 3, EXG Channel 4, EXG Channel 5, EXG Channel 6, EXG Channel 7, Accel Channel 0, Accel Channel 1, Accel Channel 2, Not Used, Digital Channel 0 (D11), Digital Channel 1 (D12), Digital Channel 2 (D13), Digital Channel 3 (D17), Not Used, Digital Channel 4 (D18), Analog Channel 0, Analog Channel 1, Analog Channel 2, Timestamp, Marker Channel, Timestamp (Formatted)
0, -22351.83, -11372.95, -44787.90, 24615.63, -37978.93, 22378.11, -48978.51, 13467.83, 0.000, 0.000, 0.000, 0, 0, 0, 0, 0, 0, 0, 0, 0, 0, 1774154354103, 0, 04:39:14.103
1, -31960.16, -3133.80, -35481.85, 6958.55, -33976.46, 12658.36, -48480.53, 23429.62, 0.000, 0.000, 0.000, 0, 0, 0, 0, 0, 0, 0, 0, 0, 0, 1774154354107, 0, 04:39:14.107
2, -38529.06, 1727.63, -22180.63, -9250.65, -26427.88, 6013.38, -44000.93, 27787.89, 0.000, 0.000, 0.000, 0, 0, 0, 0, 0, 0, 0, 0, 0, 0, 1774154354111, 0, 04:39:14.111
3, -41070.34, -469.72, -5919.75, -26449.61, -12772.94, 3774.67, -31439.05, 27598.47, 0.000, 0.000, 0.000, 0, 0, 0, 0, 0, 0, 0, 0, 0, 0, 1774154354115, 0, 04:39:14.115
4, -36811.78, -4253.22, 12235.43, -36932.79, -6208.41, 7032.71, -11960.47, 23887.01, 0.000, 0.000, 0.000, 0, 0, 0, 0, 0, 0, 0, 0, 0, 0, 1774154354119, 0, 04:39:14.119
5, -25744.85, -9482.03, 23177.76, -41411.67, 1285.20, 13365.53, 5960.63, 12335.60, 0.000, 0.000, 0.000, 0, 0, 0, 0, 0, 0, 0, 0, 0, 0, 1774154354123, 0, 04:39:14.123
6, -7690.33, -15372.59, 33617.68, -39361.31, 4780.91, 18127.49, 26132.58, -4097.31, 0.000, 0.000, 0.000, 0, 0, 0, 0, 0, 0, 0, 0, 0, 0, 1774154354127, 0, 04:39:14.127
7, 9468.34, -17081.50, 36637.88, -28293.00, 2242.39, 24011.87, 36870.37, -19488.91, 0.000, 0.000, 0.000, 0, 0, 0, 0, 0, 0, 0, 0, 0, 0, 1774154354131, 0, 04:39:14.131
8, 28255.43, -15810.45, 32742.56, -16070.33, -3673.49, 23636.74, 44129.90, -32953.17, 0.000, 0.000, 0.000, 0, 0, 0, 0, 0, 0, 0, 0, 0, 0, 1774154354135, 0, 04:39:14.135
9, 42996.02, -5767.58, 24384.22, -2140.13, -10122.42, 20070.58, 45403.63, -39394.76, 0.000, 0.000, 0.000, 0, 0, 0, 0, 0, 0, 0, 0, 0, 0, 1774154354139, 0, 04:39:14.139
10, 52815.08, 8446.82, 15319.70, 9692.09, -17428.92, 11486.40, 37683.72, -41414.70, 0.000, 0.000, 0.000, 0, 0, 0, 0, 0, 0, 0, 0, 0, 0, 1774154354143, 0, 04:39:14.143
11, 54164.44, 24178.20, 8237.59, 18521.14, -15070.58, -4665.51, 27353.22, -36040.17, 0.000, 0.000, 0.000, 0, 0, 0, 0, 0, 0, 0, 0, 0, 0, 1774154354147, 0, 04:39:14.147
12, 46697.33, 39730.50, 5406.57, 18372.27, -12294.04, -18263.20, 14904.55, -22654.40, 0.000, 0.000, 0.000, 0, 0, 0, 0, 0, 0, 0, 0, 0, 0, 1774154354151, 0, 04:39:14.151
13, 34288.32, 51710.41, 7473.30, 18657.91, -1608.54, -29656.31, 4587.16, -8373.86, 0.000, 0.000, 0.000, 0, 0, 0, 0, 0, 0, 0, 0, 0, 0, 1774154354155, 0, 04:39:14.155
14, 20015.87, 56911.17, 11415.25, 11252.14, 8368.45, -39235.35, -1823.46, 9980.52, 0.000, 0.000, 0.000, 0, 0, 0, 0, 0, 0, 0, 0, 0, 0, 1774154354159, 0, 04:39:14.159
15, 7694.01, 55673.15, 19850.82, 5669.05, 24035.27, -41813.10, -2664.53, 25225.60, 0.000, 0.000, 0.000, 0, 0, 0, 0, 0, 0, 0, 0, 0, 0, 1774154354163, 0, 04:39:14.163
16, -2455.50, 47335.89, 27408.74, 2675.04, 34638.46, -35101.03, 1003.43, 34296.89, 0.000, 0.000, 0.000, 0, 0, 0, 0, 0, 0, 0, 0, 0, 0, 1774154354167, 0, 04:39:14.167
17, -7837.77, 30735.24, 28418.69, 3242.65, 41841.48, -24552.84, 7898.54, 36695.44, 0.000, 0.000, 0.000, 0, 0, 0, 0, 0, 0, 0, 0, 0, 0, 1774154354171, 0, 04:39:14.171
18, -8882.68, 11686.12, 24807.17, 5889.83, 40911.31, -8223.38, 12586.87, 34272.65, 0.000, 0.000, 0.000, 0, 0, 0, 0, 0, 0, 0, 0, 0, 0, 1774154354175, 0, 04:39:14.175
19, -4063.46, -5920.07, 16121.77, 15355.30, 33027.49, 10425.24, 16347.14, 27588.22, 0.000, 0.000, 0.000, 0, 0, 0, 0, 0, 0, 0, 0, 0, 0, 1774154354179, 0, 04:39:14.179
20, 1616.68, -19725.31, 3837.34, 27006.96, 17900.91, 25363.78, 15828.97, 18703.78, 0.000, 0.000, 0.000, 0, 0, 0, 0, 0, 0, 0, 0, 0, 0, 1774154354183, 0, 04:39:14.183
21, 6578.41, -28950.22, -14371.29, 37283.83, 1567.06, 35287.80, 12061.21, 12076.96, 0.000, 0.000, 0.000, 0, 0, 0, 0, 0, 0, 0, 0, 0, 0, 1774154354187, 0, 04:39:14.187
22, 8777.87, -30486.19, -31234.72, 45164.11, -15758.52, 36428.29, 1393.15, 7572.87, 0.000, 0.000, 0.000, 0, 0, 0, 0, 0, 0, 0, 0, 0, 0, 1774154354191, 0, 04:39:14.191
23, 5216.94, -27113.20, -47017.59, 48440.84, -29056.20, 33145.63, -13347.81, 8127.46, 0.000, 0.000, 0.000, 0, 0, 0, 0, 0, 0, 0, 0, 0, 0, 1774154354195, 0, 04:39:14.195
24, -1994.54, -19867.18, -54363.08, 39632.35, -36634.43, 24208.79, -25483.77, 13621.67, 0.000, 0.000, 0.000, 0, 0, 0, 0, 0, 0, 0, 0, 0, 0, 1774154354199, 0, 04:39:14.199
25, -13371.50, -11617.25, -56116.60, 25660.98, -38289.52, 12712.32, -33222.20, 19657.06, 0.000, 0.000, 0.000, 0, 0, 0, 0, 0, 0, 0, 0, 0, 0, 1774154354203, 0, 04:39:14.203
26, -24767.07, -6037.79, -49737.53, 7287.47, -33727.76, 2140.63, -35193.74, 27116.34, 0.000, 0.000, 0.000, 0, 0, 0, 0, 0, 0, 0, 0, 0, 0, 1774154354207, 0, 04:39:14.207
27, -33863.68, -5532.88, -36276.26, -11649.82, -21761.91, -6017.62, -31288.11, 28747.96, 0.000, 0.000, 0.000, 0, 0, 0, 0, 0, 0, 0, 0, 0, 0, 1774154354211, 0, 04:39:14.211
28, -40235.70, -7734.23, -20239.39, -30418.27, -6648.59, -7837.82, -19944.12, 26594.35, 0.000, 0.000, 0.000, 0, 0, 0, 0, 0, 0, 0, 0, 0, 0, 1774154354215, 0, 04:39:14.215
29, -37196.20, -12930.48, -438.36, -42674.84, 4542.09, -5976.05, -4808.00, 20382.46, 0.000, 0.000, 0.000, 0, 0, 0, 0, 0, 0, 0, 0, 0, 0, 1774154354219, 0, 04:39:14.219
30, -28447.56, -20929.87, 11842.85, -49308.95, 9101.13, -1120.48, 14234.06, 7110.06, 0.000, 0.000, 0.000, 0, 0, 0, 0, 0, 0, 0, 0, 0, 0, 1774154354223, 0, 04:39:14.223
31, -14158.99, -28296.66, 21487.62, -49198.36, 15540.62, 6453.72, 29823.40, -8410.52, 0.000, 0.000, 0.000, 0, 0, 0, 0, 0, 0, 0, 0, 0, 0, 1774154354227, 0, 04:39:14.227
32, 3558.47, -30896.10, 23438.60, -39520.92, 15175.79, 11879.36, 40722.40, -28534.74, 0.000, 0.000, 0.000, 0, 0, 0, 0, 0, 0, 0, 0, 0, 0, 1774154354231, 0, 04:39:14.231
33, 22143.95, -28672.84, 20609.31, -30043.14, 9511.42, 12849.15, 46454.49, -42922.93, 0.000, 0.000, 0.000, 0, 0, 0, 0, 0, 0, 0, 0, 0, 0, 1774154354235, 0, 04:39:14.235
34, 33411.75, -20484.55, 15496.18, -16275.60, 3350.00, 7444.26, 41460.32, -52279.90, 0.000, 0.000, 0.000, 0, 0, 0, 0, 0, 0, 0, 0, 0, 0, 1774154354239, 0, 04:39:14.239
35, 42158.39, -6559.70, 10018.67, -4030.72, -977.42, -554.04, 33956.27, -54868.97, 0.000, 0.000, 0.000, 0, 0, 0, 0, 0, 0, 0, 0, 0, 0, 1774154354243, 0, 04:39:14.243
36, 39556.85, 11389.78, 3766.63, 3843.28, -1078.27, -14059.18, 21215.23, -49552.19, 0.000, 0.000, 0.000, 0, 0, 0, 0, 0, 0, 0, 0, 0, 0, 1774154354247, 0, 04:39:14.247
37, 33495.90, 27073.80, 2415.02, 6881.01, 1505.28, -26766.65, 7653.17, -36851.90, 0.000, 0.000, 0.000, 0, 0, 0, 0, 0, 0, 0, 0, 0, 0, 1774154354251, 0, 04:39:14.251
38, 21599.00, 42251.36, 6789.24, 4303.17, 12375.77, -39077.19, -6383.53, -19832.40, 0.000, 0.000, 0.000, 0, 0, 0, 0, 0, 0, 0, 0, 0, 0, 1774154354255, 0, 04:39:14.255
39, 7442.46, 47345.74, 14393.10, 198.82, 23239.43, -43500.93, -12851.99, -2152.17, 0.000, 0.000, 0.000, 0, 0, 0, 0, 0, 0, 0, 0, 0, 0, 1774154354259, 0, 04:39:14.259
40, -5983.55, 46550.23, 24598.75, -6294.19, 34922.80, -43246.41, -14760.17, 11463.81, 0.000, 0.000, 0.000, 0, 0, 0, 0, 0, 0, 0, 0, 0, 0, 1774154354263, 0, 04:39:14.263
41, -15732.11, 39035.00, 31872.97, -7628.15, 46606.81, -34688.69, -12369.16, 20849.92, 0.000, 0.000, 0.000, 0, 0, 0, 0, 0, 0, 0, 0, 0, 0, 1774154354267, 0, 04:39:14.267
42, -21217.31, 25782.31, 37008.80, -6154.91, 48776.44, -20105.01, -6337.38, 27083.28, 0.000, 0.000, 0.000, 0, 0, 0, 0, 0, 0, 0, 0, 0, 0, 1774154354271, 0, 04:39:14.271
43, -20272.00, 9613.79, 36361.29, 855.38, 47068.78, -2642.56, -733.58, 23328.22, 0.000, 0.000, 0.000, 0, 0, 0, 0, 0, 0, 0, 0, 0, 0, 1774154354275, 0, 04:39:14.275
44, -13778.40, -4766.47, 27586.70, 8859.26, 37105.35, 16483.59, 2487.84, 20478.40, 0.000, 0.000, 0.000, 0, 0, 0, 0, 0, 0, 0, 0, 0, 0, 1774154354279, 0, 04:39:14.279
45, -7371.76, -19586.43, 14915.46, 22682.33, 23499.84, 34889.91, 3074.65, 13341.70, 0.000, 0.000, 0.000, 0, 0, 0, 0, 0, 0, 0, 0, 0, 0, 1774154354283, 0, 04:39:14.283
46, -1694.73, -24648.39, -1624.08, 36858.89, 1613.62, 44225.05, -2556.48, 8063.67, 0.000, 0.000, 0.000, 0, 0, 0, 0, 0, 0, 0, 0, 0, 0, 1774154354287, 0, 04:39:14.287
47, 1986.34, -25418.29, -18790.70, 42929.50, -19082.51, 47263.94, -11265.98, 5423.36, 0.000, 0.000, 0.000, 0, 0, 0, 0, 0, 0, 0, 0, 0, 0, 1774154354291, 0, 04:39:14.291
48, 1242.14, -21657.54, -31034.19, 48856.28, -33730.65, 46615.98, -21909.55, 5498.31, 0.000, 0.000, 0.000, 0, 0, 0, 0, 0, 0, 0, 0, 0, 0, 1774154354295, 0, 04:39:14.295
49, -2984.67, -10838.83, -39927.39, 45300.35, -42879.05, 37891.56, -33246.83, 13042.37, 0.000, 0.000, 0.000, 0, 0, 0, 0, 0, 0, 0, 0, 0, 0, 1774154354299, 0, 04:39:14.299
50, -11965.89, -984.61, -41225.21, 32894.55, -45416.41, 28487.92, -39888.80, 23167.08, 0.000, 0.000, 0.000, 0, 0, 0, 0, 0, 0, 0, 0, 0, 0, 1774154354303, 0, 04:39:14.303
51, -20922.06, 4504.97, -37246.17, 16981.31, -40012.93, 17070.28, -40369.18, 30993.16, 0.000, 0.000, 0.000, 0, 0, 0, 0, 0, 0, 0, 0, 0, 0, 1774154354307, 0, 04:39:14.307
52, -29219.08, 8595.39, -20847.73, -1735.02, -31539.06, 9359.97, -34418.13, 36968.42, 0.000, 0.000, 0.000, 0, 0, 0, 0, 0, 0, 0, 0, 0, 0, 1774154354311, 0, 04:39:14.311
53, -31265.88, 5703.78, -7862.14, -18064.10, -20956.64, 7565.76, -20975.83, 38166.53, 0.000, 0.000, 0.000, 0, 0, 0, 0, 0, 0, 0, 0, 0, 0, 1774154354315, 0, 04:39:14.315
54, -27005.39, 726.91, 10306.85, -30387.42, -10837.17, 6147.34, -2104.95, 31493.74, 0.000, 0.000, 0.000, 0, 0, 0, 0, 0, 0, 0, 0, 0, 0, 1774154354319, 0, 04:39:14.319
55, -17336.56, -4696.45, 19688.05, -36318.42, -661.21, 11439.58, 16275.44, 18628.03, 0.000, 0.000, 0.000, 0, 0, 0, 0, 0, 0, 0, 0, 0, 0, 1774154354323, 0, 04:39:14.323
56, -851.72, -12905.41, 27391.25, -34903.37, 1002.48, 16528.88, 33487.10, 4451.76, 0.000, 0.000, 0.000, 0, 0, 0, 0, 0, 0, 0, 0, 0, 0, 1774154354327, 0, 04:39:14.327
57, 16665.12, -17123.33, 27153.84, -26746.30, -401.95, 18983.23, 47845.75, -13046.96, 0.000, 0.000, 0.000, 0, 0, 0, 0, 0, 0, 0, 0, 0, 0, 1774154354331, 0, 04:39:14.331
58, 34765.90, -14448.35, 24923.05, -14987.67, -4565.30, 21240.14, 54440.17, -28679.67, 0.000, 0.000, 0.000, 0, 0, 0, 0, 0, 0, 0, 0, 0, 0, 1774154354335, 0, 04:39:14.335
59, 48593.96, -7802.86, 15626.40, -292.78, -10590.10, 14183.85, 53681.00, -37590.41, 0.000, 0.000, 0.000, 0, 0, 0, 0, 0, 0, 0, 0, 0, 0, 1774154354339, 0, 04:39:14.339
60, 55182.90, 4524.01, 6811.25, 8540.87, -13461.52, 4421.77, 46992.79, -40754.05, 0.000, 0.000, 0.000, 0, 0, 0, 0, 0, 0, 0, 0, 0, 0, 1774154354343, 0, 04:39:14.343
61, 56243.12, 20648.06, -426.29, 15796.46, -12862.56, -10787.76, 32410.13, -34731.17, 0.000, 0.000, 0.000, 0, 0, 0, 0, 0, 0, 0, 0, 0, 0, 1774154354347, 0, 04:39:14.347
62, 47674.07, 33735.26, -1641.15, 16361.72, -6460.05, -26376.43, 22118.72, -24465.54, 0.000, 0.000, 0.000, 0, 0, 0, 0, 0, 0, 0, 0, 0, 0, 1774154354351, 0, 04:39:14.351
63, 34969.87, 45182.87, -160.17, 12951.69, 3062.97, -40920.41, 10973.10, -8263.08, 0.000, 0.000, 0.000, 0, 0, 0, 0, 0, 0, 0, 0, 0, 0, 1774154354355, 0, 04:39:14.355
64, 19762.82, 51156.15, 6354.28, 5538.02, 16127.33, -49668.67, 2326.81, 4725.41, 0.000, 0.000, 0.000, 0, 0, 0, 0, 0, 0, 0, 0, 0, 0, 1774154354359, 0, 04:39:14.359
65, 4834.74, 49325.41, 11813.16, -1277.77, 30308.33, -50255.40, -237.79, 20018.59, 0.000, 0.000, 0.000, 0, 0, 0, 0, 0, 0, 0, 0, 0, 0, 1774154354363, 0, 04:39:14.363
66, -6396.59, 39599.43, 19728.61, -5762.71, 43890.13, -43174.12, 929.84, 27509.53, 0.000, 0.000, 0.000, 0, 0, 0, 0, 0, 0, 0, 0, 0, 0, 1774154354367, 0, 04:39:14.367
67, -13357.07, 22280.16, 22270.02, -5211.19, 50450.40, -31047.01, 5817.33, 29234.60, 0.000, 0.000, 0.000, 0, 0, 0, 0, 0, 0, 0, 0, 0, 0, 1774154354371, 0, 04:39:14.371
68, -14570.28, 5265.21, 21687.42, -139.93, 49476.94, -14458.72, 11365.35, 27424.01, 0.000, 0.000, 0.000, 0, 0, 0, 0, 0, 0, 0, 0, 0, 0, 1774154354375, 0, 04:39:14.375
69, -11029.03, -14059.91, 14008.24, 5972.99, 41710.11, 3161.74, 13938.62, 19628.62, 0.000, 0.000, 0.000, 0, 0, 0, 0, 0, 0, 0, 0, 0, 0, 1774154354379, 0, 04:39:14.379
70, -7278.82, -25831.66, 1970.88, 18111.10, 28472.55, 19978.07, 12391.44, 8150.79, 0.000, 0.000, 0.000, 0, 0, 0, 0, 0, 0, 0, 0, 0, 0, 1774154354383, 0, 04:39:14.383
71, -2623.94, -36621.42, -13713.25, 28054.22, 11818.76, 29715.24, 5674.12, 3004.33, 0.000, 0.000, 0.000, 0, 0, 0, 0, 0, 0, 0, 0, 0, 0, 1774154354387, 0, 04:39:14.387
72, -1121.31, -36032.29, -30100.05, 36324.44, -7823.60, 33938.22, -5049.78, -1076.32, 0.000, 0.000, 0.000, 0, 0, 0, 0, 0, 0, 0, 0, 0, 0, 1774154354391, 0, 04:39:14.391
73, -3855.17, -33565.73, -44939.60, 39033.64, -21647.67, 31103.25, -18437.65, -1597.24, 0.000, 0.000, 0.000, 0, 0, 0, 0, 0, 0, 0, 0, 0, 0, 1774154354395, 0, 04:39:14.395
74, -10065.34, -23276.33, -50587.29, 32244.71, -29759.75, 23324.49, -32786.51, 3188.04, 0.000, 0.000, 0.000, 0, 0, 0, 0, 0, 0, 0, 0, 0, 0, 1774154354399, 0, 04:39:14.399
75, -21683.38, -15616.69, -51178.08, 20507.48, -33216.18, 14055.67, -40341.80, 9971.07, 0.000, 0.000, 0.000, 0, 0, 0, 0, 0, 0, 0, 0, 0, 0, 1774154354403, 0, 04:39:14.403
76, -32250.92, -9852.38, -43426.23, 4958.93, -27867.47, 4965.87, -42618.94, 18530.92, 0.000, 0.000, 0.000, 0, 0, 0, 0, 0, 0, 0, 0, 0, 0, 1774154354407, 0, 04:39:14.407
77, -39437.28, -5926.91, -29602.24, -14585.80, -18379.14, -5.04, -40215.39, 23379.84, 0.000, 0.000, 0.000, 0, 0, 0, 0, 0, 0, 0, 0, 0, 0, 1774154354411, 0, 04:39:14.411
78, -44534.77, -5688.05, -11885.57, -32667.13, -7903.71, -2707.48, -27882.07, 23974.84, 0.000, 0.000, 0.000, 0, 0, 0, 0, 0, 0, 0, 0, 0, 0, 1774154354415, 0, 04:39:14.415
79, -40502.43, -10051.68, 7820.75, -44072.01, 4083.31, 1040.11, -13938.63, 17203.08, 0.000, 0.000, 0.000, 0, 0, 0, 0, 0, 0, 0, 0, 0, 0, 1774154354419, 0, 04:39:14.419
80, -31947.03, -17414.88, 21178.45, -50244.53, 11220.07, 5277.21, 5018.72, 4094.39, 0.000, 0.000, 0.000, 0, 0, 0, 0, 0, 0, 0, 0, 0, 0, 1774154354423, 0, 04:39:14.423
81, -15635.77, -22837.84, 30365.13, -46908.79, 14092.99, 11984.16, 21317.90, -10460.61, 0.000, 0.000, 0.000, 0, 0, 0, 0, 0, 0, 0, 0, 0, 0, 1774154354427, 0, 04:39:14.427
82, 2398.29, -24271.14, 33083.01, -38009.36, 10123.75, 19113.40, 35467.43, -27416.76, 0.000, 0.000, 0.000, 0, 0, 0, 0, 0, 0, 0, 0, 0, 0, 1774154354431, 0, 04:39:14.431
83, 21285.14, -21532.24, 33000.25, -26556.21, 5265.01, 21600.98, 41491.94, -42021.86, 0.000, 0.000, 0.000, 0, 0, 0, 0, 0, 0, 0, 0, 0, 0, 1774154354435, 0, 04:39:14.435
84, 36990.89, -13523.51, 25869.45, -10820.48, -569.84, 17818.26, 38547.98, -51117.72, 0.000, 0.000, 0.000, 0, 0, 0, 0, 0, 0, 0, 0, 0, 0, 1774154354439, 0, 04:39:14.439
85, 43151.39, 1254.86, 16944.55, 1539.65, -5451.86, 9308.49, 32000.27, -50298.27, 0.000, 0.000, 0.000, 0, 0, 0, 0, 0, 0, 0, 0, 0, 0, 1774154354443, 0, 04:39:14.443
86, 46015.85, 19380.31, 11841.97, 10679.12, -7822.47, -6764.21, 20765.37, -43810.20, 0.000, 0.000, 0.000, 0, 0, 0, 0, 0, 0, 0, 0, 0, 0, 1774154354447, 0, 04:39:14.447
87, 39733.67, 37169.98, 10008.18, 14377.94, -6582.07, -17380.08, 6627.28, -30516.57, 0.000, 0.000, 0.000, 0, 0, 0, 0, 0, 0, 0, 0, 0, 0, 1774154354451, 0, 04:39:14.451
88, 27689.11, 50881.86, 12802.38, 12809.76, 3171.32, -30163.98, -3905.56, -14448.68, 0.000, 0.000, 0.000, 0, 0, 0, 0, 0, 0, 0, 0, 0, 0, 1774154354455, 0, 04:39:14.455
89, 13293.02, 57246.32, 18234.92, 7855.71, 14010.40, -38895.89, -9828.29, 4267.89, 0.000, 0.000, 0.000, 0, 0, 0, 0, 0, 0, 0, 0, 0, 0, 1774154354459, 0, 04:39:14.459
90, 1817.00, 56200.87, 27209.98, 4150.71, 27046.23, -37103.92, -12466.55, 18309.27, 0.000, 0.000, 0.000, 0, 0, 0, 0, 0, 0, 0, 0, 0, 0, 1774154354463, 0, 04:39:14.463
91, -7987.27, 48413.05, 35207.17, -181.47, 36092.97, -30397.78, -8148.76, 29054.71, 0.000, 0.000, 0.000, 0, 0, 0, 0, 0, 0, 0, 0, 0, 0, 1774154354467, 0, 04:39:14.467
92, -11439.42, 33083.04, 36300.18, 693.44, 40089.92, -16698.15, 93.30, 34186.25, 0.000, 0.000, 0.000, 0, 0, 0, 0, 0, 0, 0, 0, 0, 0, 1774154354471, 0, 04:39:14.471
93, -10421.77, 16424.96, 34379.83, 5103.48, 39213.95, 1217.39, 4653.76, 32799.10, 0.000, 0.000, 0.000, 0, 0, 0, 0, 0, 0, 0, 0, 0, 0, 1774154354475, 0, 04:39:14.475
94, -3744.26, -933.85, 26464.61, 18056.86, 30883.02, 18656.30, 10544.82, 25425.31, 0.000, 0.000, 0.000, 0, 0, 0, 0, 0, 0, 0, 0, 0, 0, 1774154354479, 0, 04:39:14.479
95, 1718.44, -14634.84, 12353.20, 29768.86, 15346.75, 32117.67, 10772.90, 18658.22, 0.000, 0.000, 0.000, 0, 0, 0, 0, 0, 0, 0, 0, 0, 0, 1774154354483, 0, 04:39:14.483
96, 7216.09, -20997.66, -3177.60, 42557.43, -2959.63, 42933.81, 5700.21, 13153.69, 0.000, 0.000, 0.000, 0, 0, 0, 0, 0, 0, 0, 0, 0, 0, 1774154354487, 0, 04:39:14.487
97, 11199.66, -22604.70, -22144.89, 48525.30, -21416.10, 44375.58, -2781.13, 11512.95, 0.000, 0.000, 0.000, 0, 0, 0, 0, 0, 0, 0, 0, 0, 0, 1774154354491, 0, 04:39:14.491
98, 9498.26, -18174.17, -37328.49, 51659.84, -36077.84, 42350.41, -12653.82, 11470.83, 0.000, 0.000, 0.000, 0, 0, 0, 0, 0, 0, 0, 0, 0, 0, 1774154354495, 0, 04:39:14.495
99, 4066.54, -10909.07, -47709.28, 47309.78, -44755.48, 33834.17, -24515.87, 17764.87, 0.000, 0.000, 0.000, 0, 0, 0, 0, 0, 0, 0, 0, 0, 0, 1774154354499, 0, 04:39:14.499
100, -6159.03, -3124.66, -49542.35, 33686.42, -46977.27, 19804.11, -31785.63, 25553.65, 0.000, 0.000, 0.000, 0, 0, 0, 0, 0, 0, 0, 0, 0, 0, 1774154354503, 0, 04:39:14.503
101, -17224.34, 3179.58, -44755.47, 17544.73, -41251.66, 9030.35, -32605.12, 32495.10, 0.000, 0.000, 0.000, 0, 0, 0, 0, 0, 0, 0, 0, 0, 0, 1774154354507, 0, 04:39:14.507
102, -24851.96, 4724.99, -30808.39, -2821.23, -29250.84, 550.46, -28871.24, 37253.70, 0.000, 0.000, 0.000, 0, 0, 0, 0, 0, 0, 0, 0, 0, 0, 1774154354511, 0, 04:39:14.511
103, -31093.27, 2565.74, -15606.28, -20509.64, -17757.75, -2870.68, -17486.30, 34848.22, 0.000, 0.000, 0.000, 0, 0, 0, 0, 0, 0, 0, 0, 0, 0, 1774154354515, 0, 04:39:14.515
104, -28129.00, -4888.17, 746.74, -33578.68, -5609.19, -1284.18, 1829.34, 28124.62, 0.000, 0.000, 0.000, 0, 0, 0, 0, 0, 0, 0, 0, 0, 0, 1774154354519, 0, 04:39:14.519
105, -19252.12, -12300.85, 12171.15, -40210.80, 3463.49, 2155.94, 19019.52, 16725.68, 0.000, 0.000, 0.000, 0, 0, 0, 0, 0, 0, 0, 0, 0, 0, 1774154354523, 0, 04:39:14.523
106, -4295.67, -19675.74, 19846.55, -40572.60, 7525.13, 8418.00, 36649.85, -460.38, 0.000, 0.000, 0.000, 0, 0, 0, 0, 0, 0, 0, 0, 0, 0, 1774154354527, 0, 04:39:14.527
107, 12076.55, -25091.16, 21762.44, -34552.63, 6956.17, 12532.19, 47360.77, -19328.26, 0.000, 0.000, 0.000, 0, 0, 0, 0, 0, 0, 0, 0, 0, 0, 1774154354531, 0, 04:39:14.531
108, 30518.68, -23353.97, 18730.25, -23237.85, 3747.54, 12463.41, 53643.31, -35043.93, 0.000, 0.000, 0.000, 0, 0, 0, 0, 0, 0, 0, 0, 0, 0, 1774154354535, 0, 04:39:14.535
109, 42561.16, -16837.34, 9611.48, -10069.14, -1757.14, 5246.55, 50086.11, -48206.50, 0.000, 0.000, 0.000, 0, 0, 0, 0, 0, 0, 0, 0, 0, 0, 1774154354539, 0, 04:39:14.539
110, 47863.41, -4464.06, 3808.46, -1099.29, -4786.90, -2886.23, 42311.81, -50714.11, 0.000, 0.000, 0.000, 0, 0, 0, 0, 0, 0, 0, 0, 0, 0, 1774154354543, 0, 04:39:14.543
111, 47101.58, 10275.73, -2637.22, 6046.11, -4943.89, -16696.86, 28630.36, -45691.90, 0.000, 0.000, 0.000, 0, 0, 0, 0, 0, 0, 0, 0, 0, 0, 1774154354547, 0, 04:39:14.547
112, 39982.89, 27546.45, -5392.58, 7239.37, 1214.93, -31386.47, 14138.60, -32264.08, 0.000, 0.000, 0.000, 0, 0, 0, 0, 0, 0, 0, 0, 0, 0, 1774154354551, 0, 04:39:14.551
113, 26945.82, 39183.68, -3447.53, 4291.36, 11757.34, -45368.64, 2135.51, -19572.89, 0.000, 0.000, 0.000, 0, 0, 0, 0, 0, 0, 0, 0, 0, 0, 1774154354555, 0, 04:39:14.555
114, 12175.44, 44523.41, 5135.27, -2539.44, 24319.65, -53144.34, -8061.93, -2710.62, 0.000, 0.000, 0.000, 0, 0, 0, 0, 0, 0, 0, 0, 0, 0, 1774154354559, 0, 04:39:14.559
115, -1883.51, 44157.40, 15492.41, -9627.95, 36461.80, -53400.86, -10417.78, 10532.31, 0.000, 0.000, 0.000, 0, 0, 0, 0, 0, 0, 0, 0, 0, 0, 1774154354563, 0, 04:39:14.563
116, -15275.38, 33344.56, 24067.50, -11584.74, 49820.64, -45833.15, -7397.13, 19276.72, 0.000, 0.000, 0.000, 0, 0, 0, 0, 0, 0, 0, 0, 0, 0, 1774154354567, 0, 04:39:14.567
117, -22370.98, 21699.09, 27954.35, -10951.68, 55031.99, -30548.77, -3512.28, 21771.73, 0.000, 0.000, 0.000, 0, 0, 0, 0, 0, 0, 0, 0, 0, 0, 1774154354571, 0, 04:39:14.571
118, -23690.41, 1647.70, 29020.96, -8043.00, 52457.18, -11354.83, -28.19, 18010.51, 0.000, 0.000, 0.000, 0, 0, 0, 0, 0, 0, 0, 0, 0, 0, 1774154354575, 0, 04:39:14.575
119, -17554.14, -14438.98, 20683.91, 3653.66, 44904.84, 8345.60, 4029.59, 10135.88, 0.000, 0.000, 0.000, 0, 0, 0, 0, 0, 0, 0, 0, 0, 0, 1774154354579, 0, 04:39:14.579
120, -12402.89, -27762.93, 9452.32, 16574.55, 27673.95, 23501.08, 1351.92, 5840.18, 0.000, 0.000, 0.000, 0, 0, 0, 0, 0, 0, 0, 0, 0, 0, 1774154354583, 0, 04:39:14.583
121, -6541.72, -33954.40, -7330.41, 28106.86, 10928.56, 35339.40, -3474.50, -2154.19, 0.000, 0.000, 0.000, 0, 0, 0, 0, 0, 0, 0, 0, 0, 0, 1774154354587, 0, 04:39:14.587
122, -4148.24, -33848.72, -23310.02, 35837.47, -9137.65, 39983.60, -14588.11, -5942.47, 0.000, 0.000, 0.000, 0, 0, 0, 0, 0, 0, 0, 0, 0, 0, 1774154354591, 0, 04:39:14.591
123, -5501.33, -29260.82, -36433.16, 38219.83, -27010.77, 37574.22, -27300.88, -1950.43, 0.000, 0.000, 0.000, 0, 0, 0, 0, 0, 0, 0, 0, 0, 0, 1774154354595, 0, 04:39:14.595
124, -10576.91, -18542.64, -44875.66, 34954.25, -35012.97, 31755.05, -38931.47, 4246.93, 0.000, 0.000, 0.000, 0, 0, 0, 0, 0, 0, 0, 0, 0, 0, 1774154354599, 0, 04:39:14.599
125, -20524.24, -9990.81, -41759.41, 24227.11, -38650.43, 21891.06, -44734.77, 13308.53, 0.000, 0.000, 0.000, 0, 0, 0, 0, 0, 0, 0, 0, 0, 0, 1774154354603, 0, 04:39:14.603
126, -30523.12, -1933.49, -35816.65, 8342.62, -35184.88, 12563.02, -49673.34, 22323.61, 0.000, 0.000, 0.000, 0, 0, 0, 0, 0, 0, 0, 0, 0, 0, 1774154354607, 0, 04:39:14.607
127, -38688.85, 1205.27, -22345.04, -9565.69, -26780.37, 6524.57, -43494.11, 26409.73, 0.000, 0.000, 0.000, 0, 0, 0, 0, 0, 0, 0, 0, 0, 0, 1774154354611, 0, 04:39:14.611
128, -41692.14, 1972.16, -5822.02, -26510.94, -15432.91, 4893.65, -30712.23, 27245.57, 0.000, 0.000, 0.000, 0, 0, 0, 0, 0, 0, 0, 0, 0, 0, 1774154354615, 0, 04:39:14.615
129, -36475.52, -2801.89, 11822.89, -36704.15, -5675.54, 7481.33, -14846.83, 22354.42, 0.000, 0.000, 0.000, 0, 0, 0, 0, 0, 0, 0, 0, 0, 0, 1774154354619, 0, 04:39:14.619
130, -25090.68, -9477.85, 27139.35, -41449.41, -48.77, 11967.47, 4097.27, 12191.30, 0.000, 0.000, 0.000, 0, 0, 0, 0, 0, 0, 0, 0, 0, 0, 1774154354623, 0, 04:39:14.623
131, -6985.84, -15237.39, 35575.54, -39125.29, 4892.70, 20112.17, 23098.51, -5483.85, 0.000, 0.000, 0.000, 0, 0, 0, 0, 0, 0, 0, 0, 0, 0, 1774154354627, 0, 04:39:14.627
132, 10926.77, -14550.91, 34118.84, -30262.60, 1099.20, 24343.92, 37891.53, -19630.38, 0.000, 0.000, 0.000, 0, 0, 0, 0, 0, 0, 0, 0, 0, 0, 1774154354631, 0, 04:39:14.631
133, 30509.67, -14327.73, 31481.35, -15847.66, -5062.95, 24382.77, 43847.69, -32713.23, 0.000, 0.000, 0.000, 0, 0, 0, 0, 0, 0, 0, 0, 0, 0, 1774154354635, 0, 04:39:14.635
134, 44162.61, -6782.43, 23398.40, -3775.84, -12076.94, 20141.25, 43545.72, -41255.49, 0.000, 0.000, 0.000, 0, 0, 0, 0, 0, 0, 0, 0, 0, 0, 1774154354639, 0, 04:39:14.639
135, 52070.59, 7403.47, 16673.00, 10047.18, -15332.51, 10007.29, 37755.35, -42734.77, 0.000, 0.000, 0.000, 0, 0, 0, 0, 0, 0, 0, 0, 0, 0, 1774154354643, 0, 04:39:14.643
136, 53113.05, 24186.65, 9216.47, 16171.19, -18080.16, -3445.97, 25294.46, -36164.12, 0.000, 0.000, 0.000, 0, 0, 0, 0, 0, 0, 0, 0, 0, 0, 1774154354647, 0, 04:39:14.647
137, 46902.50, 40521.62, 5228.74, 20412.11, -12513.65, -20629.59, 13800.07, -26898.51, 0.000, 0.000, 0.000, 0, 0, 0, 0, 0, 0, 0, 0, 0, 0, 1774154354651, 0, 04:39:14.651
138, 37596.28, 52665.26, 7123.50, 18284.86, -3786.46, -31872.77, 2207.92, -6612.36, 0.000, 0.000, 0.000, 0, 0, 0, 0, 0, 0, 0, 0, 0, 0, 1774154354655, 0, 04:39:14.655
139, 20663.27, 58573.46, 11719.92, 11563.78, 9079.49, -41417.84, -2491.37, 9270.27, 0.000, 0.000, 0.000, 0, 0, 0, 0, 0, 0, 0, 0, 0, 0, 1774154354659, 0, 04:39:14.659
140, 8454.46, 55449.67, 20568.66, 7274.76, 22171.31, -43347.43, -3884.58, 24505.88, 0.000, 0.000, 0.000, 0, 0, 0, 0, 0, 0, 0, 0, 0, 0, 1774154354663, 0, 04:39:14.663
141, -3359.77, 46756.76, 25924.71, 2189.69, 33872.66, -37348.32, -170.69, 31532.47, 0.000, 0.000, 0.000, 0, 0, 0, 0, 0, 0, 0, 0, 0, 0, 1774154354667, 0, 04:39:14.667
142, -7000.64, 30248.23, 28924.72, 930.08, 40580.57, -25294.82, 4113.95, 33999.28, 0.000, 0.000, 0.000, 0, 0, 0, 0, 0, 0, 0, 0, 0, 0, 1774154354671, 0, 04:39:14.671
143, -7512.81, 12052.76, 23453.72, 6071.64, 40025.49, -9484.23, 11196.77, 34210.63, 0.000, 0.000, 0.000, 0, 0, 0, 0, 0, 0, 0, 0, 0, 0, 1774154354675, 0, 04:39:14.675
144, -4011.13, -6216.73, 17007.29, 16249.51, 31150.99, 9836.28, 14124.33, 24764.87, 0.000, 0.000, 0.000, 0, 0, 0, 0, 0, 0, 0, 0, 0, 0, 1774154354679, 0, 04:39:14.679
145, 1822.28, -20921.40, 4697.48, 27129.56, 17842.32, 25550.42, 14584.74, 16687.72, 0.000, 0.000, 0.000, 0, 0, 0, 0, 0, 0, 0, 0, 0, 0, 1774154354683, 0, 04:39:14.683
146, 6103.03, -27708.07, -13491.93, 35862.45, 1440.48, 31647.38, 10540.87, 9992.48, 0.000, 0.000, 0.000, 0, 0, 0, 0, 0, 0, 0, 0, 0, 0, 1774154354687, 0, 04:39:14.687
147, 8646.42, -30381.76, -34024.40, 43586.21, -18070.63, 34794.08, -1070.89, 6142.35, 0.000, 0.000, 0.000, 0, 0, 0, 0, 0, 0, 0, 0, 0, 0, 1774154354691, 0, 04:39:14.691
148, 4811.82, -26839.02, -47265.34, 44842.24, -30552.16, 32293.71, -14494.62, 6757.35, 0.000, 0.000, 0.000, 0, 0, 0, 0, 0, 0, 0, 0, 0, 0, 1774154354695, 0, 04:39:14.695
149, -3529.84, -20791.47, -56644.15, 38014.70, -39444.15, 22640.31, -26029.63, 10401.62, 0.000, 0.000, 0.000, 0, 0, 0, 0, 0, 0, 0, 0, 0, 0, 1774154354699, 0, 04:39:14.699
150, -14465.41, -12413.60, -55012.47, 27534.07, -40497.23, 12130.11, -35609.27, 16054.28, 0.000, 0.000, 0.000, 0, 0, 0, 0, 0, 0, 0, 0, 0, 0, 1774154354703, 0, 04:39:14.703
151, -24829.72, -8742.96, -49469.19, 7736.06, -33569.13, 638.35, -38277.65, 24222.46, 0.000, 0.000, 0.000, 0, 0, 0, 0, 0, 0, 0, 0, 0, 0, 1774154354707, 0, 04:39:14.707
152, -33040.05, -4278.49, -37240.60, -12364.75, -23577.67, -7296.31, -32448.55, 27955.90, 0.000, 0.000, 0.000, 0, 0, 0, 0, 0, 0, 0, 0, 0, 0, 1774154354711, 0, 04:39:14.711
153, -38873.57, -7161.33, -19846.19, -29536.65, -11305.64, -9845.97, -23491.26, 24342.42, 0.000, 0.000, 0.000, 0, 0, 0, 0, 0, 0, 0, 0, 0, 0, 1774154354715, 0, 04:39:14.715
154, -37131.76, -12740.55, -5225.81, -44450.44, 2926.81, -9850.72, -6238.20, 19663.76, 0.000, 0.000, 0.000, 0, 0, 0, 0, 0, 0, 0, 0, 0, 0, 1774154354719, 0, 04:39:14.719
155, -27945.09, -20677.17, 10183.26, -49909.56, 11153.23, -3387.45, 11128.00, 2992.76, 0.000, 0.000, 0.000, 0, 0, 0, 0, 0, 0, 0, 0, 0, 0, 1774154354723, 0, 04:39:14.723
156, -12660.66, -28692.69, 20114.27, -51395.52, 12362.07, 5013.36, 26739.20, -10944.95, 0.000, 0.000, 0.000, 0, 0, 0, 0, 0, 0, 0, 0, 0, 0, 1774154354727, 0, 04:39:14.727
157, 3729.12, -32405.33, 23769.42, -42851.20, 11591.39, 10293.72, 38880.46, -30291.75, 0.000, 0.000, 0.000, 0, 0, 0, 0, 0, 0, 0, 0, 0, 0, 1774154354731, 0, 04:39:14.731
158, 20150.51, -29510.85, 18891.47, -29701.25, 8685.41, 11720.27, 42609.79, -44458.73, 0.000, 0.000, 0.000, 0, 0, 0, 0, 0, 0, 0, 0, 0, 0, 1774154354735, 0, 04:39:14.735
159, 34782.31, -20073.98, 14383.79, -16063.08, 1952.07, 6939.81, 41605.63, -54445.96, 0.000, 0.000, 0.000, 0, 0, 0, 0, 0, 0, 0, 0, 0, 0, 1774154354739, 0, 04:39:14.739
160, 41267.11, -6401.74, 8907.72, -6594.96, -1015.99, -4478.04, 31333.84, -57279.69, 0.000, 0.000, 0.000, 0, 0, 0, 0, 0, 0, 0, 0, 0, 0, 1774154354743, 0, 04:39:14.743
161, 41924.30, 8370.92, 1869.42, 908.74, -2658.81, -15704.41, 18636.58, -51324.55, 0.000, 0.000, 0.000, 0, 0, 0, 0, 0, 0, 0, 0, 0, 0, 1774154354747, 0, 04:39:14.747
162, 33435.50, 25208.87, 2258.56, 4845.53, 1101.49, -27612.15, 4526.46, -39594.25, 0.000, 0.000, 0.000, 0, 0, 0, 0, 0, 0, 0, 0, 0, 0, 1774154354751, 0, 04:39:14.751
163, 19811.04, 38563.93, 5539.04, 1922.93, 8709.63, -38813.47, -6451.58, -22533.65, 0.000, 0.000, 0.000, 0, 0, 0, 0, 0, 0, 0, 0, 0, 0, 1774154354755, 0, 04:39:14.755
164, 5105.34, 45958.43, 14245.49, -2461.07, 21961.04, -45427.07, -14361.57, -3988.51, 0.000, 0.000, 0.000, 0, 0, 0, 0, 0, 0, 0, 0, 0, 0, 1774154354759, 0, 04:39:14.759
165, -5822.06, 44635.74, 21685.99, -6478.28, 32822.33, -46181.92, -19671.61, 7818.01, 0.000, 0.000, 0.000, 0, 0, 0, 0, 0, 0, 0, 0, 0, 0, 1774154354763, 0, 04:39:14.763
166, -15628.25, 36760.90, 30101.24, -10499.71, 44926.13, -38927.82, -14847.48, 16298.18, 0.000, 0.000, 0.000, 0, 0, 0, 0, 0, 0, 0, 0, 0, 0, 1774154354767, 0, 04:39:14.767
167, -21832.75, 23767.06, 35840.26, -10308.45, 48629.71, -23175.44, -11230.71, 22876.96, 0.000, 0.000, 0.000, 0, 0, 0, 0, 0, 0, 0, 0, 0, 0, 1774154354771, 0, 04:39:14.771
168, -21015.64, 8193.60, 33161.15, -3290.46, 44914.15, -4534.34, -4047.63, 21336.23, 0.000, 0.000, 0.000, 0, 0, 0, 0, 0, 0, 0, 0, 0, 0, 1774154354775, 0, 04:39:14.775
169, -14109.07, -8794.12, 26964.14, 8627.59, 36362.22, 16059.91, 73.73, 16030.06, 0.000, 0.000, 0.000, 0, 0, 0, 0, 0, 0, 0, 0, 0, 0, 1774154354779, 0, 04:39:14.779
170, -9088.46, -20150.15, 13875.29, 20090.18, 21593.63, 31346.94, -230.74, 8779.28, 0.000, 0.000, 0.000, 0, 0, 0, 0, 0, 0, 0, 0, 0, 0, 1774154354783, 0, 04:39:14.783
171, -2317.83, -25724.80, -2322.52, 34082.09, -3.50, 42142.72, -4367.27, 4934.13, 0.000, 0.000, 0.000, 0, 0, 0, 0, 0, 0, 0, 0, 0, 0, 1774154354787, 0, 04:39:14.787
172, 2544.27, -28045.11, -18444.14, 42208.23, -18765.03, 46247.19, -13217.42, 995.04, 0.000, 0.000, 0.000, 0, 0, 0, 0, 0, 0, 0, 0, 0, 0, 1774154354791, 0, 04:39:14.791
173, 650.40, -21798.92, -32862.44, 47997.90, -35698.42, 43775.83, -25773.02, 5125.11, 0.000, 0.000, 0.000, 0, 0, 0, 0, 0, 0, 0, 0, 0, 0, 1774154354795, 0, 04:39:14.795
174, -4527.96, -12002.89, -42499.67, 44365.98, -45339.45, 35981.05, -36428.26, 11868.66, 0.000, 0.000, 0.000, 0, 0, 0, 0, 0, 0, 0, 0, 0, 0, 1774154354799, 0, 04:39:14.799
175, -13383.09, -3901.15, -42873.94, 30524.81, -49602.27, 24158.95, -42772.37, 20504.87, 0.000, 0.000, 0.000, 0, 0, 0, 0, 0, 0, 0, 0, 0, 0, 1774154354803, 0, 04:39:14.803
176, -22427.16, 3278.50, -35390.99, 15603.36, -44219.52, 13531.20, -45132.09, 29327.30, 0.000, 0.000, 0.000, 0, 0, 0, 0, 0, 0, 0, 0, 0, 0, 1774154354807, 0, 04:39:14.807
177, -28844.12, 8108.12, -25169.83, -3654.38, -34973.72, 8162.27, -38045.71, 35373.95, 0.000, 0.000, 0.000, 0, 0, 0, 0, 0, 0, 0, 0, 0, 0, 1774154354811, 0, 04:39:14.811
178, -32611.94, 5390.73, -8767.01, -19932.79, -21804.31, 2327.70, -23477.99, 34948.90, 0.000, 0.000, 0.000, 0, 0, 0, 0, 0, 0, 0, 0, 0, 0, 1774154354815, 0, 04:39:14.815
179, -28320.79, 1202.62, 6470.91, -30456.79, -13930.16, 6467.89, -8106.14, 28596.57, 0.000, 0.000, 0.000, 0, 0, 0, 0, 0, 0, 0, 0, 0, 0, 1774154354819, 0, 04:39:14.819
180, -20245.80, -6888.69, 19010.68, -38253.87, -4666.35, 7770.78, 12711.42, 17372.17, 0.000, 0.000, 0.000, 0, 0, 0, 0, 0, 0, 0, 0, 0, 0, 1774154354823, 0, 04:39:14.823
181, -2717.78, -14485.29, 24734.80, -36665.60, 103.49, 14268.54, 30706.04, 1428.34, 0.000, 0.000, 0.000, 0, 0, 0, 0, 0, 0, 0, 0, 0, 0, 1774154354827, 0, 04:39:14.827
182, 15040.45, -17454.39, 28362.11, -29530.90, -2422.05, 19220.40, 46475.75, -15503.16, 0.000, 0.000, 0.000, 0, 0, 0, 0, 0, 0, 0, 0, 0, 0, 1774154354831, 0, 04:39:14.831
183, 32503.78, -16138.39, 21912.12, -15955.32, -6763.97, 17896.87, 50850.45, -32767.45, 0.000, 0.000, 0.000, 0, 0, 0, 0, 0, 0, 0, 0, 0, 0, 1774154354835, 0, 04:39:14.835
184, 46605.10, -8254.10, 15452.96, -7074.36, -12663.75, 10918.05, 49997.42, -41189.77, 0.000, 0.000, 0.000, 0, 0, 0, 0, 0, 0, 0, 0, 0, 0, 1774154354839, 0, 04:39:14.839
185, 54347.20, 2606.31, 5126.80, 6208.49, -16342.62, 1380.72, 42031.23, -44598.64, 0.000, 0.000, 0.000, 0, 0, 0, 0, 0, 0, 0, 0, 0, 0, 1774154354843, 0, 04:39:14.843
186, 54984.19, 18145.15, -1885.60, 13132.78, -16760.38, -13711.80, 31147.62, -38242.84, 0.000, 0.000, 0.000, 0, 0, 0, 0, 0, 0, 0, 0, 0, 0, 1774154354847, 0, 04:39:14.847
187, 45241.25, 32777.54, -3408.80, 13937.36, -10178.10, -29761.96, 18255.12, -26801.78, 0.000, 0.000, 0.000, 0, 0, 0, 0, 0, 0, 0, 0, 0, 0, 1774154354851, 0, 04:39:14.851
188, 33266.45, 44635.97, -2096.46, 11851.70, -11.63, -43748.96, 5781.15, -12522.07, 0.000, 0.000, 0.000, 0, 0, 0, 0, 0, 0, 0, 0, 0, 0, 1774154354855, 0, 04:39:14.855
189, 17153.24, 48116.80, 2724.65, 5689.09, 14778.34, -51725.02, -98.87, 2873.49, 0.000, 0.000, 0.000, 0, 0, 0, 0, 0, 0, 0, 0, 0, 0, 1774154354859, 0, 04:39:14.859
190, 2353.02, 47329.87, 10836.93, -3573.19, 28435.10, -53563.37, -3329.00, 17273.38, 0.000, 0.000, 0.000, 0, 0, 0, 0, 0, 0, 0, 0, 0, 0, 1774154354863, 0, 04:39:14.863
191, -7939.10, 36846.67, 17000.15, -5319.39, 40669.43, -44573.38, -927.39, 24869.96, 0.000, 0.000, 0.000, 0, 0, 0, 0, 0, 0, 0, 0, 0, 0, 1774154354867, 0, 04:39:14.867
192, -14675.04, 19597.92, 21085.30, -9115.02, 47353.09, -33963.60, 2692.06, 28369.21, 0.000, 0.000, 0.000, 0, 0, 0, 0, 0, 0, 0, 0, 0, 0, 1774154354871, 0, 04:39:14.871
193, -14936.87, 3360.99, 19057.14, -2467.27, 47266.92, -16934.62, 8124.32, 25082.99, 0.000, 0.000, 0.000, 0, 0, 0, 0, 0, 0, 0, 0, 0, 0, 1774154354875, 0, 04:39:14.875
194, -13049.48, -13578.94, 12888.94, 5138.95, 38981.00, 961.30, 10343.60, 16841.47, 0.000, 0.000, 0.000, 0, 0, 0, 0, 0, 0, 0, 0, 0, 0, 1774154354879, 0, 04:39:14.879
195, -8397.67, -28767.15, -1449.42, 15588.07, 24501.45, 18570.10, 10182.70, 7234.36, 0.000, 0.000, 0.000, 0, 0, 0, 0, 0, 0, 0, 0, 0, 0, 1774154354883, 0, 04:39:14.883
196, -3575.18, -36608.80, -15729.83, 26311.21, 7957.77, 25954.48, 2359.90, 1092.17, 0.000, 0.000, 0.000, 0, 0, 0, 0, 0, 0, 0, 0, 0, 0, 1774154354887, 0, 04:39:14.887
197, -1807.39, -39400.64, -33706.70, 33919.23, -8926.11, 31500.62, -8704.20, -4277.78, 0.000, 0.000, 0.000, 0, 0, 0, 0, 0, 0, 0, 0, 0, 0, 1774154354891, 0, 04:39:14.891
198, -4921.12, -36755.49, -46661.85, 35640.05, -24358.46, 28274.63, -22410.27, -4272.61, 0.000, 0.000, 0.000, 0, 0, 0, 0, 0, 0, 0, 0, 0, 0, 1774154354895, 0, 04:39:14.895
199, -13506.21, -29007.85, -53306.42, 29177.42, -33901.51, 19624.31, -35219.92, 439.86, 0.000, 0.000, 0.000, 0, 0, 0, 0, 0, 0, 0, 0, 0, 0, 1774154354899, 0, 04:39:14.899
200, -22974.51, -18277.52, -53651.18, 17672.89, -35416.95, 10228.41, -43749.95, 7865.06, 0.000, 0.000, 0.000, 0, 0, 0, 0, 0, 0, 0, 0, 0, 0, 1774154354903, 0, 04:39:14.903
201, -33918.35, -11872.68, -45959.76, 309.58, -32448.70, 1901.03, -46421.15, 15938.29, 0.000, 0.000, 0.000, 0, 0, 0, 0, 0, 0, 0, 0, 0, 0, 1774154354907, 0, 04:39:14.907
202, -40598.59, -8694.14, -31585.18, -18766.50, -21270.75, -5359.60, -43683.92, 21063.40, 0.000, 0.000, 0.000, 0, 0, 0, 0, 0, 0, 0, 0, 0, 0, 1774154354911, 0, 04:39:14.911
203, -44834.44, -8880.27, -13208.41, -35442.58, -9915.99, -6015.92, -31981.06, 19151.27, 0.000, 0.000, 0.000, 0, 0, 0, 0, 0, 0, 0, 0, 0, 0, 1774154354915, 0, 04:39:14.915
204, -44200.15, -12912.28, 3078.50, -47966.05, 287.56, -1715.85, -15859.04, 13700.34, 0.000, 0.000, 0.000, 0, 0, 0, 0, 0, 0, 0, 0, 0, 0, 1774154354919, 0, 04:39:14.919
205, -33705.63, -21133.37, 18151.19, -52643.09, 7694.33, 3268.20, 2471.07, 2351.16, 0.000, 0.000, 0.000, 0, 0, 0, 0, 0, 0, 0, 0, 0, 0, 1774154354923, 0, 04:39:14.923
206, -19100.80, -25799.10, 27554.93, -49670.31, 10397.89, 9230.14, 17491.36, -12960.79, 0.000, 0.000, 0.000, 0, 0, 0, 0, 0, 0, 0, 0, 0, 0, 1774154354927, 0, 04:39:14.927
207, 328.22, -26160.46, 31390.41, -41142.87, 9188.95, 15493.73, 30553.83, -30064.26, 0.000, 0.000, 0.000, 0, 0, 0, 0, 0, 0, 0, 0, 0, 0, 1774154354931, 0, 04:39:14.931
208, 19446.79, -25169.58, 28055.53, -26413.24, 3356.47, 17705.36, 35963.44, -43822.77, 0.000, 0.000, 0.000, 0, 0, 0, 0, 0, 0, 0, 0, 0, 0, 1774154354935, 0, 04:39:14.935
209, 34870.42, -14216.03, 23591.83, -15732.35, -5471.67, 14000.74, 35787.21, -53638.02, 0.000, 0.000, 0.000, 0, 0, 0, 0, 0, 0, 0, 0, 0, 0, 1774154354939, 0, 04:39:14.939
210, 41561.18, -1075.28, 14704.11, -766.34, -10611.11, 5485.44, 27304.12, -54469.72, 0.000, 0.000, 0.000, 0, 0, 0, 0, 0, 0, 0, 0, 0, 0, 1774154354943, 0, 04:39:14.943
211, 42562.20, 17013.61, 9120.22, 7371.95, -12262.18, -7145.41, 16009.53, -47063.65, 0.000, 0.000, 0.000, 0, 0, 0, 0, 0, 0, 0, 0, 0, 0, 1774154354947, 0, 04:39:14.947
212, 35113.24, 34405.43, 7277.80, 11521.27, -7715.83, -19847.78, 2746.24, -33351.52, 0.000, 0.000, 0.000, 0, 0, 0, 0, 0, 0, 0, 0, 0, 0, 1774154354951, 0, 04:39:14.951
213, 25524.07, 47431.72, 8732.05, 10168.61, 16.16, -33348.38, -7225.36, -16384.63, 0.000, 0.000, 0.000, 0, 0, 0, 0, 0, 0, 0, 0, 0, 0, 1774154354955, 0, 04:39:14.955
214, 11062.15, 54661.86, 15143.59, 5117.94, 11629.08, -41433.36, -14305.64, 603.36, 0.000, 0.000, 0.000, 0, 0, 0, 0, 0, 0, 0, 0, 0, 0, 1774154354959, 0, 04:39:14.959
215, -1304.25, 52217.56, 23547.98, 614.52, 24378.62, -39603.34, -13889.32, 16560.59, 0.000, 0.000, 0.000, 0, 0, 0, 0, 0, 0, 0, 0, 0, 0, 1774154354963, 0, 04:39:14.963
216, -10906.81, 46000.94, 32108.74, -2940.40, 33357.45, -32308.13, -10645.07, 28519.15, 0.000, 0.000, 0.000, 0, 0, 0, 0, 0, 0, 0, 0, 0, 0, 1774154354967, 0, 04:39:14.967
217, -14362.27, 30169.86, 34596.95, -481.23, 39909.56, -19696.37, -4470.96, 31917.23, 0.000, 0.000, 0.000, 0, 0, 0, 0, 0, 0, 0, 0, 0, 0, 1774154354971, 0, 04:39:14.971
218, -14644.14, 14023.69, 32105.90, 3380.56, 36627.12, -2739.61, 2030.66, 29724.17, 0.000, 0.000, 0.000, 0, 0, 0, 0, 0, 0, 0, 0, 0, 0, 1774154354975, 0, 04:39:14.975
219, -9121.45, -2759.94, 25120.48, 15917.20, 26606.71, 15972.98, 5214.61, 23273.91, 0.000, 0.000, 0.000, 0, 0, 0, 0, 0, 0, 0, 0, 0, 0, 1774154354979, 0, 04:39:14.979
220, 1109.97, -15900.85, 11246.02, 27583.89, 12007.60, 30384.62, 7138.05, 16298.31, 0.000, 0.000, 0.000, 0, 0, 0, 0, 0, 0, 0, 0, 0, 0, 1774154354983, 0, 04:39:14.983
221, 4271.73, -23799.98, -6696.62, 38888.82, -5109.14, 38415.26, 2418.68, 10838.44, 0.000, 0.000, 0.000, 0, 0, 0, 0, 0, 0, 0, 0, 0, 0, 1774154354987, 0, 04:39:14.987
222, 7346.96, -26328.13, -26649.06, 47165.91, -24855.48, 43471.92, -5498.07, 8290.18, 0.000, 0.000, 0.000, 0, 0, 0, 0, 0, 0, 0, 0, 0, 0, 1774154354991, 0, 04:39:14.991
223, 8176.46, -22796.23, -41472.47, 49199.40, -38466.76, 39751.70, -16374.19, 10084.76, 0.000, 0.000, 0.000, 0, 0, 0, 0, 0, 0, 0, 0, 0, 0, 1774154354995, 0, 04:39:14.995
224, 2666.72, -13459.95, -48760.54, 45148.93, -48634.48, 31071.43, -27422.85, 15405.36, 0.000, 0.000, 0.000, 0, 0, 0, 0, 0, 0, 0, 0, 0, 0, 1774154354999, 0, 04:39:14.999
225, -10701.42, -6021.98, -51962.57, 34553.11, -50264.22, 17466.06, -33985.59, 22457.65, 0.000, 0.000, 0.000, 0, 0, 0, 0, 0, 0, 0, 0, 0, 0, 1774154355003, 0, 04:39:15.003
226, -20652.10, 845.89, -46600.28, 15374.22, -43590.12, 7046.85, -37182.96, 29735.19, 0.000, 0.000, 0.000, 0, 0, 0, 0, 0, 0, 0, 0, 0, 0, 1774154355007, 0, 04:39:15.007
227, -28641.83, 1860.17, -33753.42, -5709.04, -34392.23, -1213.58, -31801.27, 36315.29, 0.000, 0.000, 0.000, 0, 0, 0, 0, 0, 0, 0, 0, 0, 0, 1774154355011, 0, 04:39:15.011
228, -31338.73, -1904.57, -18041.91, -22802.10, -19985.37, -5139.40, -18277.83, 33063.44, 0.000, 0.000, 0.000, 0, 0, 0, 0, 0, 0, 0, 0, 0, 0, 1774154355015, 0, 04:39:15.015
229, -31260.00, -6273.34, -3778.94, -36380.19, -8152.83, -4273.32, -2186.86, 25112.23, 0.000, 0.000, 0.000, 0, 0, 0, 0, 0, 0, 0, 0, 0, 0, 1774154355019, 0, 04:39:15.019
230, -21487.91, -15832.41, 9660.60, -44728.24, -200.13, -131.12, 16098.70, 11594.71, 0.000, 0.000, 0.000, 0, 0, 0, 0, 0, 0, 0, 0, 0, 0, 1774154355023, 0, 04:39:15.023
231, -6113.08, -22846.93, 17899.54, -44620.78, 4863.02, 5338.13, 34928.95, -4493.42, 0.000, 0.000, 0.000, 0, 0, 0, 0, 0, 0, 0, 0, 0, 0, 1774154355027, 0, 04:39:15.027
232, 10817.91, -27958.36, 17706.07, -36740.08, 4078.88, 9573.46, 46004.74, -21611.16, 0.000, 0.000, 0.000, 0, 0, 0, 0, 0, 0, 0, 0, 0, 0, 1774154355031, 0, 04:39:15.031
233, 26767.02, -24840.66, 15074.29, -24962.77, 1108.14, 9914.70, 50622.31, -38858.77, 0.000, 0.000, 0.000, 0, 0, 0, 0, 0, 0, 0, 0, 0, 0, 1774154355035, 0, 04:39:15.035
234, 39771.02, -19950.09, 7047.66, -14878.58, -2397.26, 2932.67, 47962.41, -47606.52, 0.000, 0.000, 0.000, 0, 0, 0, 0, 0, 0, 0, 0, 0, 0, 1774154355039, 0, 04:39:15.039
235, 45074.01, -7187.88, -577.47, -3653.46, -7716.54, -6869.31, 40964.41, -52162.88, 0.000, 0.000, 0.000, 0, 0, 0, 0, 0, 0, 0, 0, 0, 0, 1774154355043, 0, 04:39:15.043
236, 44907.25, 8471.13, -5980.61, 3900.17, -6492.19, -20948.68, 26950.96, -46687.05, 0.000, 0.000, 0.000, 0, 0, 0, 0, 0, 0, 0, 0, 0, 0, 1774154355047, 0, 04:39:15.047
237, 36589.40, 22582.13, -6898.94, 4821.49, -1555.07, -35817.50, 12528.65, -37271.83, 0.000, 0.000, 0.000, 0, 0, 0, 0, 0, 0, 0, 0, 0, 0, 1774154355051, 0, 04:39:15.051
238, 23526.19, 35650.59, -4746.21, 2848.41, 8586.46, -49194.63, 622.15, -22131.36, 0.000, 0.000, 0.000, 0, 0, 0, 0, 0, 0, 0, 0, 0, 0, 1774154355055, 0, 04:39:15.055
239, 7040.01, 42586.96, 1842.75, -5660.14, 21702.64, -54978.50, -7614.12, -5433.25, 0.000, 0.000, 0.000, 0, 0, 0, 0, 0, 0, 0, 0, 0, 0, 1774154355059, 0, 04:39:15.059
240, -6923.74, 39110.76, 11431.08, -8677.84, 34837.44, -54604.33, -11228.68, 8511.50, 0.000, 0.000, 0.000, 0, 0, 0, 0, 0, 0, 0, 0, 0, 0, 1774154355063, 0, 04:39:15.063
241, -17638.89, 30985.86, 18761.65, -16132.95, 46979.35, -47465.58, -9593.26, 16728.08, 0.000, 0.000, 0.000, 0, 0, 0, 0, 0, 0, 0, 0, 0, 0, 1774154355067, 0, 04:39:15.067
242, -24252.79, 13741.58, 25209.03, -16305.91, 52077.38, -33006.01, -5675.05, 20008.12, 0.000, 0.000, 0.000, 0, 0, 0, 0, 0, 0, 0, 0, 0, 0, 1774154355071, 0, 04:39:15.071
243, -24392.12, -1046.67, 25491.99, -9217.91, 49963.29, -14144.32, -815.72, 17579.73, 0.000, 0.000, 0.000, 0, 0, 0, 0, 0, 0, 0, 0, 0, 0, 1774154355075, 0, 04:39:15.075
244, -20629.53, -17791.99, 17867.55, -352.54, 42568.81, 6054.67, 713.97, 9294.86, 0.000, 0.000, 0.000, 0, 0, 0, 0, 0, 0, 0, 0, 0, 0, 1774154355079, 0, 04:39:15.079
245, -14570.45, -30977.44, 5664.17, 12923.56, 26468.66, 21205.16, 1563.66, 2480.27, 0.000, 0.000, 0.000, 0, 0, 0, 0, 0, 0, 0, 0, 0, 0, 1774154355083, 0, 04:39:15.083
246, -9690.79, -36164.60, -9359.74, 24874.27, 7308.68, 32017.90, -7317.69, -3961.01, 0.000, 0.000, 0.000, 0, 0, 0, 0, 0, 0, 0, 0, 0, 0, 1774154355087, 0, 04:39:15.087
247, -6205.24, -37695.92, -27382.61, 33409.98, -10379.88, 37702.32, -16300.32, -6566.68, 0.000, 0.000, 0.000, 0, 0, 0, 0, 0, 0, 0, 0, 0, 0, 1774154355091, 0, 04:39:15.091
248, -8331.90, -32129.73, -38086.99, 35708.64, -29075.63, 37529.92, -30242.53, -3792.75, 0.000, 0.000, 0.000, 0, 0, 0, 0, 0, 0, 0, 0, 0, 0, 1774154355095, 0, 04:39:15.095
249, -12534.74, -23239.95, -43035.81, 32686.31, -36467.75, 27854.99, -40952.46, 1658.65, 0.000, 0.000, 0.000, 0, 0, 0, 0, 0, 0, 0, 0, 0, 0, 1774154355099, 0, 04:39:15.099
250, -22131.94, -14676.94, -45687.94, 21175.35, -41458.01, 19946.62, -49469.39, 9132.29, 0.000, 0.000, 0.000, 0, 0, 0, 0, 0, 0, 0, 0, 0, 0, 1774154355103, 0, 04:39:15.103
251, -32890.05, -5942.33, -38024.71, 6700.03, -36869.61, 11293.64, -50826.32, 19439.25, 0.000, 0.000, 0.000, 0, 0, 0, 0, 0, 0, 0, 0, 0, 0, 1774154355107, 0, 04:39:15.107
252, -41285.89, 92.57, -23632.81, -12070.91, -28980.18, 1996.29, -45295.31, 24629.40, 0.000, 0.000, 0.000, 0, 0, 0, 0, 0, 0, 0, 0, 0, 0, 1774154355111, 0, 04:39:15.111
253, -44023.97, -2997.81, -5961.76, -28886.30, -18434.76, 2617.67, -34106.31, 26842.68, 0.000, 0.000, 0.000, 0, 0, 0, 0, 0, 0, 0, 0, 0, 0, 1774154355115, 0, 04:39:15.115
254, -37814.43, -6085.92, 10255.50, -41015.06, -6361.55, 5419.61, -15850.26, 21776.60, 0.000, 0.000, 0.000, 0, 0, 0, 0, 0, 0, 0, 0, 0, 0, 1774154355119, 0, 04:39:15.119
255, -27615.95, -12004.30, 21105.29, -44440.98, 982.14, 10446.41, 4942.89, 8028.09, 0.000, 0.000, 0.000, 0, 0, 0, 0, 0, 0, 0, 0, 0, 0, 1774154355123, 0, 04:39:15.123
0, -10910.92, -15710.45, 31667.91, -42817.05, 1372.17, 16766.45, 20727.40, -5795.66, 0.000, 0.000, 0.000, 0, 0, 0, 0, 0, 0, 0, 0, 0, 0, 1774154355127, 0, 04:39:15.127
1, 6498.42, -18899.63, 35309.57, -33917.60, -562.79, 21648.90, 34766.72, -20869.69, 0.000, 0.000, 0.000, 0, 0, 0, 0, 0, 0, 0, 0, 0, 0, 1774154355131, 0, 04:39:15.131
2, 27697.91, -17239.59, 29830.09, -19200.95, -6506.97, 22563.86, 43243.89, -36167.66, 0.000, 0.000, 0.000, 0, 0, 0, 0, 0, 0, 0, 0, 0, 0, 1774154355135, 0, 04:39:15.135
3, 42254.61, -6983.68, 20806.69, -7100.22, -11663.82, 17795.17, 42196.53, -42699.21, 0.000, 0.000, 0.000, 0, 0, 0, 0, 0, 0, 0, 0, 0, 0, 1774154355139, 0, 04:39:15.139
4, 49404.67, 4754.93, 13591.42, 7884.33, -19940.64, 7437.00, 35507.91, -43738.02, 0.000, 0.000, 0.000, 0, 0, 0, 0, 0, 0, 0, 0, 0, 0, 1774154355143, 0, 04:39:15.143
5, 50833.16, 22531.44, 5404.09, 14711.78, -18637.97, -6497.05, 25368.77, -38500.41, 0.000, 0.000, 0.000, 0, 0, 0, 0, 0, 0, 0, 0, 0, 0, 1774154355147, 0, 04:39:15.147
6, 45076.64, 36277.72, 4470.11, 17183.10, -15268.48, -20415.16, 11686.60, -26372.80, 0.000, 0.000, 0.000, 0, 0, 0, 0, 0, 0, 0, 0, 0, 0, 1774154355151, 0, 04:39:15.151
7, 33090.51, 50579.45, 3841.97, 14106.85, -7306.52, -35823.16, 1634.87, -11232.76, 0.000, 0.000, 0.000, 0, 0, 0, 0, 0, 0, 0, 0, 0, 0, 1774154355155, 0, 04:39:15.155
8, 18470.89, 55102.40, 9858.98, 10347.56, 7302.78, -44651.54, -4744.05, 8577.43, 0.000, 0.000, 0.000, 0, 0, 0, 0, 0, 0, 0, 0, 0, 0, 1774154355159, 0, 04:39:15.159
9, 4987.10, 52619.52, 16075.46, 3696.86, 22886.52, -43470.79, -5753.05, 24022.34, 0.000, 0.000, 0.000, 0, 0, 0, 0, 0, 0, 0, 0, 0, 0, 1774154355163, 0, 04:39:15.163
10, -5403.40, 43799.59, 22676.12, -905.26, 31996.45, -38634.13, -1006.45, 33123.54, 0.000, 0.000, 0.000, 0, 0, 0, 0, 0, 0, 0, 0, 0, 0, 1774154355167, 0, 04:39:15.167
11, -10281.32, 28824.45, 27389.09, -163.76, 39463.74, -26301.60, 2355.31, 34395.31, 0.000, 0.000, 0.000, 0, 0, 0, 0, 0, 0, 0, 0, 0, 0, 1774154355171, 0, 04:39:15.171
12, -9128.11, 9751.05, 23670.76, 2913.50, 39108.36, -9552.76, 9090.87, 30747.18, 0.000, 0.000, 0.000, 0, 0, 0, 0, 0, 0, 0, 0, 0, 0, 1774154355175, 0, 04:39:15.175
13, -8681.49, -7304.24, 14384.36, 11843.27, 30106.70, 7964.33, 12870.44, 25437.96, 0.000, 0.000, 0.000, 0, 0, 0, 0, 0, 0, 0, 0, 0, 0, 1774154355179, 0, 04:39:15.179
14, -874.38, -22742.51, -300.93, 23399.06, 16344.70, 21929.20, 14905.11, 16018.07, 0.000, 0.000, 0.000, 0, 0, 0, 0, 0, 0, 0, 0, 0, 0, 1774154355183, 0, 04:39:15.183
15, 4336.13, -30423.14, -18429.19, 35208.44, -2495.11, 32146.00, 7611.70, 9166.24, 0.000, 0.000, 0.000, 0, 0, 0, 0, 0, 0, 0, 0, 0, 0, 1774154355187, 0, 04:39:15.187
16, 6041.38, -32892.40, -35586.57, 41851.33, -18837.34, 33457.51, -2112.31, 4994.66, 0.000, 0.000, 0.000, 0, 0, 0, 0, 0, 0, 0, 0, 0, 0, 1774154355191, 0, 04:39:15.191
17, 2438.77, -30015.00, -48942.07, 43771.31, -31305.51, 30085.44, -15702.19, 5205.27, 0.000, 0.000, 0.000, 0, 0, 0, 0, 0, 0, 0, 0, 0, 0, 1774154355195, 0, 04:39:15.195
18, -6416.21, -23445.13, -56738.29, 35876.11, -40067.97, 19495.51, -26602.68, 10475.57, 0.000, 0.000, 0.000, 0, 0, 0, 0, 0, 0, 0, 0, 0, 0, 1774154355199, 0, 04:39:15.199
19, -15441.94, -15161.87, -58990.81, 24228.96, -40717.78, 11238.73, -34320.33, 17335.64, 0.000, 0.000, 0.000, 0, 0, 0, 0, 0, 0, 0, 0, 0, 0, 1774154355203, 0, 04:39:15.203
20, -25822.35, -8872.05, -50242.44, 5735.90, -35108.56, -569.42, -37757.95, 22604.71, 0.000, 0.000, 0.000, 0, 0, 0, 0, 0, 0, 0, 0, 0, 0, 1774154355207, 0, 04:39:15.207
21, -38112.84, -5353.38, -39099.34, -14793.36, -22549.98, -7290.48, -33929.47, 26021.61, 0.000, 0.000, 0.000, 0, 0, 0, 0, 0, 0, 0, 0, 0, 0, 1774154355211, 0, 04:39:15.211
22, -40555.35, -8585.78, -21950.29, -31856.66, -11950.88, -10275.69, -24341.85, 23304.99, 0.000, 0.000, 0.000, 0, 0, 0, 0, 0, 0, 0, 0, 0, 0, 1774154355215, 0, 04:39:15.215
23, -39586.93, -14493.66, -5705.94, -45755.27, 1882.08, -8269.87, -7498.88, 17725.08, 0.000, 0.000, 0.000, 0, 0, 0, 0, 0, 0, 0, 0, 0, 0, 1774154355219, 0, 04:39:15.219
24, -30489.31, -20316.72, 10225.29, -52875.82, 9214.07, -3340.27, 10587.23, 3885.61, 0.000, 0.000, 0.000, 0, 0, 0, 0, 0, 0, 0, 0, 0, 0, 1774154355223, 0, 04:39:15.223
25, -16943.68, -29357.03, 20183.65, -51372.02, 14354.62, 3615.61, 25736.11, -11770.40, 0.000, 0.000, 0.000, 0, 0, 0, 0, 0, 0, 0, 0, 0, 0, 1774154355227, 0, 04:39:15.227
26, 1068.62, -32610.10, 19769.02, -44003.82, 10656.95, 7541.68, 38708.93, -30262.27, 0.000, 0.000, 0.000, 0, 0, 0, 0, 0, 0, 0, 0, 0, 0, 1774154355231, 0, 04:39:15.231
27, 19518.00, -30176.69, 18632.75, -32153.93, 7218.18, 8643.47, 43716.71, -45462.57, 0.000, 0.000, 0.000, 0, 0, 0, 0, 0, 0, 0, 0, 0, 0, 1774154355235, 0, 04:39:15.235
28, 32216.80, -23334.01, 14211.62, -19157.80, 796.12, 5704.05, 39952.02, -54311.88, 0.000, 0.000, 0.000, 0, 0, 0, 0, 0, 0, 0, 0, 0, 0, 1774154355239, 0, 04:39:15.239
29, 40345.58, -9235.46, 5165.67, -8366.81, -3227.09, -3799.52, 32190.30, -56978.05, 0.000, 0.000, 0.000, 0, 0, 0, 0, 0, 0, 0, 0, 0, 0, 1774154355243, 0, 04:39:15.243
30, 39575.32, 7334.01, 2110.15, 499.89, -3090.10, -14550.17, 18533.07, -51854.45, 0.000, 0.000, 0.000, 0, 0, 0, 0, 0, 0, 0, 0, 0, 0, 1774154355247, 0, 04:39:15.247
31, 31663.76, 24887.36, 1639.35, 2426.94, 254.54, -29058.54, 5684.90, -38012.40, 0.000, 0.000, 0.000, 0, 0, 0, 0, 0, 0, 0, 0, 0, 0, 1774154355251, 0, 04:39:15.251
32, 20464.71, 37332.46, 4100.70, 407.28, 9815.43, -41433.96, -5513.53, -22440.63, 0.000, 0.000, 0.000, 0, 0, 0, 0, 0, 0, 0, 0, 0, 0, 1774154355255, 0, 04:39:15.255
33, 4774.23, 44721.02, 11815.60, -3555.65, 20118.40, -47376.55, -15999.11, -6156.22, 0.000, 0.000, 0.000, 0, 0, 0, 0, 0, 0, 0, 0, 0, 0, 1774154355259, 0, 04:39:15.259
34, -8430.65, 45160.48, 22078.80, -7675.72, 32450.19, -46317.27, -16830.19, 8845.38, 0.000, 0.000, 0.000, 0, 0, 0, 0, 0, 0, 0, 0, 0, 0, 1774154355263, 0, 04:39:15.263
35, -19252.18, 37183.20, 30652.70, -10881.90, 43069.25, -38247.49, -14015.99, 20023.48, 0.000, 0.000, 0.000, 0, 0, 0, 0, 0, 0, 0, 0, 0, 0, 1774154355267, 0, 04:39:15.267
36, -23421.83, 22801.21, 33763.22, -10022.58, 47551.52, -23260.21, -10592.11, 23696.26, 0.000, 0.000, 0.000, 0, 0, 0, 0, 0, 0, 0, 0, 0, 0, 1774154355271, 0, 04:39:15.271
37, -23058.07, 6023.86, 32636.40, -3576.93, 44853.84, -4796.24, -4245.45, 21100.52, 0.000, 0.000, 0.000, 0, 0, 0, 0, 0, 0, 0, 0, 0, 0, 1774154355275, 0, 04:39:15.275
38, -16249.76, -8215.26, 25171.02, 8297.96, 34236.49, 13198.31, -288.44, 17526.03, 0.000, 0.000, 0.000, 0, 0, 0, 0, 0, 0, 0, 0, 0, 0, 1774154355279, 0, 04:39:15.279
39, -10835.36, -20782.91, 14005.78, 18788.48, 20152.17, 29044.52, 72.03, 11128.06, 0.000, 0.000, 0.000, 0, 0, 0, 0, 0, 0, 0, 0, 0, 0, 1774154355283, 0, 04:39:15.283
40, -2483.77, -29442.68, -4492.03, 34262.49, -604.52, 41641.80, -4961.50, 5682.49, 0.000, 0.000, 0.000, 0, 0, 0, 0, 0, 0, 0, 0, 0, 0, 1774154355287, 0, 04:39:15.287
41, 209.48, -28501.25, -20450.22, 41049.67, -18416.95, 46569.50, -13814.78, 4096.04, 0.000, 0.000, 0.000, 0, 0, 0, 0, 0, 0, 0, 0, 0, 0, 1774154355291, 0, 04:39:15.291
42, 471.20, -22752.64, -34249.01, 44622.78, -35679.53, 43049.04, -24092.25, 7126.42, 0.000, 0.000, 0.000, 0, 0, 0, 0, 0, 0, 0, 0, 0, 0, 1774154355295, 0, 04:39:15.295
43, -5377.16, -13454.88, -43224.49, 41371.37, -45165.74, 36513.45, -37071.96, 13455.76, 0.000, 0.000, 0.000, 0, 0, 0, 0, 0, 0, 0, 0, 0, 0, 1774154355299, 0, 04:39:15.299
44, -13107.43, -3920.83, -43640.84, 32781.54, -48055.62, 24801.65, -43235.18, 21201.77, 0.000, 0.000, 0.000, 0, 0, 0, 0, 0, 0, 0, 0, 0, 0, 1774154355303, 0, 04:39:15.303
45, -23508.25, 2890.82, -35289.71, 16318.36, -45165.64, 15754.27, -42769.60, 29439.80, 0.000, 0.000, 0.000, 0, 0, 0, 0, 0, 0, 0, 0, 0, 0, 1774154355307, 0, 04:39:15.307
46, -32850.39, 6503.10, -25340.55, -2672.52, -34858.87, 8117.43, -36675.37, 33701.25, 0.000, 0.000, 0.000, 0, 0, 0, 0, 0, 0, 0, 0, 0, 0, 1774154355311, 0, 04:39:15.311
47, -34088.65, 4668.14, -10024.85, -19782.13, -21809.75, 4896.67, -25083.19, 35734.21, 0.000, 0.000, 0.000, 0, 0, 0, 0, 0, 0, 0, 0, 0, 0, 1774154355315, 0, 04:39:15.315
48, -31212.41, -1364.30, 6837.54, -34069.69, -12196.64, 4215.35, -5723.33, 30230.27, 0.000, 0.000, 0.000, 0, 0, 0, 0, 0, 0, 0, 0, 0, 0, 1774154355319, 0, 04:39:15.319
49, -20144.04, -8449.69, 18629.14, -38039.77, -3643.13, 9767.93, 14792.68, 17902.15, 0.000, 0.000, 0.000, 0, 0, 0, 0, 0, 0, 0, 0, 0, 0, 1774154355323, 0, 04:39:15.323
50, -2545.25, -15071.82, 26839.56, -37181.60, -387.06, 16210.12, 31847.49, 205.12, 0.000, 0.000, 0.000, 0, 0, 0, 0, 0, 0, 0, 0, 0, 0, 1774154355327, 0, 04:39:15.327
51, 15189.69, -18763.97, 26716.50, -29653.71, -1854.79, 19005.18, 44535.16, -15523.18, 0.000, 0.000, 0.000, 0, 0, 0, 0, 0, 0, 0, 0, 0, 0, 1774154355331, 0, 04:39:15.331
52, 31853.77, -18888.75, 21876.72, -17011.13, -6314.06, 18835.66, 52856.07, -29628.37, 0.000, 0.000, 0.000, 0, 0, 0, 0, 0, 0, 0, 0, 0, 0, 1774154355335, 0, 04:39:15.335
53, 45425.12, -10262.00, 12530.68, -4748.06, -11262.56, 11356.31, 52747.59, -40821.21, 0.000, 0.000, 0.000, 0, 0, 0, 0, 0, 0, 0, 0, 0, 0, 1774154355339, 0, 04:39:15.339
54, 53657.10, 2428.74, 3849.76, 7282.44, -14613.09, 3245.85, 43017.85, -42357.68, 0.000, 0.000, 0.000, 0, 0, 0, 0, 0, 0, 0, 0, 0, 0, 1774154355343, 0, 04:39:15.343
55, 52141.22, 17200.65, -3298.74, 11438.12, -16056.33, -13866.62, 32081.67, -37153.27, 0.000, 0.000, 0.000, 0, 0, 0, 0, 0, 0, 0, 0, 0, 0, 1774154355347, 0, 04:39:15.347
56, 44900.89, 32003.51, -4439.98, 14605.84, -9068.82, -30677.18, 19932.93, -25207.79, 0.000, 0.000, 0.000, 0, 0, 0, 0, 0, 0, 0, 0, 0, 0, 1774154355351, 0, 04:39:15.351
57, 32645.25, 43884.58, -4417.41, 10388.54, 1085.37, -42808.72, 7666.33, -9477.39, 0.000, 0.000, 0.000, 0, 0, 0, 0, 0, 0, 0, 0, 0, 0, 1774154355355, 0, 04:39:15.355
58, 17776.46, 47558.34, 3450.71, 4392.07, 14767.97, -53100.24, -1456.70, 4523.33, 0.000, 0.000, 0.000, 0, 0, 0, 0, 0, 0, 0, 0, 0, 0, 1774154355359, 0, 04:39:15.359
59, 2406.10, 44540.00, 10048.42, -1888.90, 30758.18, -53208.17, -2078.85, 18294.80, 0.000, 0.000, 0.000, 0, 0, 0, 0, 0, 0, 0, 0, 0, 0, 1774154355363, 0, 04:39:15.363
60, -11561.75, 35718.80, 16945.05, -7922.90, 40984.71, -43617.21, -1394.04, 26606.29, 0.000, 0.000, 0.000, 0, 0, 0, 0, 0, 0, 0, 0, 0, 0, 1774154355367, 0, 04:39:15.367
61, -15553.82, 21069.91, 20306.34, -7443.07, 47111.58, -33191.39, 3053.89, 29158.62, 0.000, 0.000, 0.000, 0, 0, 0, 0, 0, 0, 0, 0, 0, 0, 1774154355371, 0, 04:39:15.371
62, -16674.41, 3473.17, 20195.09, -3464.07, 48648.03, -16918.98, 7626.85, 25512.24, 0.000, 0.000, 0.000, 0, 0, 0, 0, 0, 0, 0, 0, 0, 0, 1774154355375, 0, 04:39:15.375
63, -13122.68, -15116.59, 11442.95, 4800.64, 38883.31, 2452.09, 12863.01, 18775.23, 0.000, 0.000, 0.000, 0, 0, 0, 0, 0, 0, 0, 0, 0, 0, 1774154355379, 0, 04:39:15.379
64, -6885.61, -31150.56, -1597.30, 16042.84, 24475.68, 17254.25, 9493.31, 6579.59, 0.000, 0.000, 0.000, 0, 0, 0, 0, 0, 0, 0, 0, 0, 0, 1774154355383, 0, 04:39:15.383
65, -5668.38, -38227.62, -15831.18, 27011.39, 9467.88, 29245.34, 3924.99, 1497.66, 0.000, 0.000, 0.000, 0, 0, 0, 0, 0, 0, 0, 0, 0, 0, 1774154355387, 0, 04:39:15.387
66, -2964.78, -39356.84, -32905.65, 33798.57, -8891.54, 31534.38, -6783.67, -2374.21, 0.000, 0.000, 0.000, 0, 0, 0, 0, 0, 0, 0, 0, 0, 0, 1774154355391, 0, 04:39:15.391
67, -4929.37, -35192.37, -46625.35, 36038.61, -23172.08, 29903.75, -20401.75, -2330.40, 0.000, 0.000, 0.000, 0, 0, 0, 0, 0, 0, 0, 0, 0, 0, 1774154355395, 0, 04:39:15.395
68, -14266.57, -26914.61, -53097.69, 30368.23, -32822.58, 21093.91, -32998.30, 808.96, 0.000, 0.000, 0.000, 0, 0, 0, 0, 0, 0, 0, 0, 0, 0, 1774154355399, 0, 04:39:15.399
69, -22026.64, -19264.03, -53301.82, 18015.75, -35547.92, 14510.13, -42074.40, 10238.62, 0.000, 0.000, 0.000, 0, 0, 0, 0, 0, 0, 0, 0, 0, 0, 1774154355403, 0, 04:39:15.403
70, -34016.31, -11197.91, -44947.33, 3112.40, -30659.99, 3382.99, -45429.15, 17165.51, 0.000, 0.000, 0.000, 0, 0, 0, 0, 0, 0, 0, 0, 0, 0, 1774154355407, 0, 04:39:15.407
71, -42240.39, -7371.62, -31814.81, -16557.51, -20313.07, -3363.98, -42116.25, 24019.13, 0.000, 0.000, 0.000, 0, 0, 0, 0, 0, 0, 0, 0, 0, 0, 1774154355411, 0, 04:39:15.411
72, -47109.49, -7900.12, -11659.18, -34237.50, -9562.18, -5095.13, -31164.41, 22652.02, 0.000, 0.000, 0.000, 0, 0, 0, 0, 0, 0, 0, 0, 0, 0, 1774154355415, 0, 04:39:15.415
73, -42801.39, -13915.10, 3715.01, -45954.06, 2548.13, -2274.30, -14396.54, 15357.14, 0.000, 0.000, 0.000, 0, 0, 0, 0, 0, 0, 0, 0, 0, 0, 1774154355419, 0, 04:39:15.419
74, -32529.98, -19858.92, 20245.40, -52257.86, 9164.00, 3943.24, 3802.18, 2355.41, 0.000, 0.000, 0.000, 0, 0, 0, 0, 0, 0, 0, 0, 0, 0, 1774154355423, 0, 04:39:15.423
75, -17574.53, -27434.77, 28042.19, -49468.22, 12182.61, 11354.26, 21170.60, -10972.08, 0.000, 0.000, 0.000, 0, 0, 0, 0, 0, 0, 0, 0, 0, 0, 1774154355427, 0, 04:39:15.427
76, 1138.24, -27636.87, 32051.79, -40515.76, 9757.87, 19298.37, 34175.36, -27357.32, 0.000, 0.000, 0.000, 0, 0, 0, 0, 0, 0, 0, 0, 0, 0, 1774154355431, 0, 04:39:15.431
77, 19541.27, -24234.07, 29551.08, -28186.72, 4086.81, 19093.71, 39345.15, -42121.72, 0.000, 0.000, 0.000, 0, 0, 0, 0, 0, 0, 0, 0, 0, 0, 1774154355435, 0, 04:39:15.435
78, 33233.64, -15378.93, 23819.54, -12335.24, -2818.63, 14101.41, 36958.98, -49875.19, 0.000, 0.000, 0.000, 0, 0, 0, 0, 0, 0, 0, 0, 0, 0, 1774154355439, 0, 04:39:15.439
79, 42309.05, 47.97, 14960.57, -468.21, -9017.39, 6031.72, 28129.44, -51798.92, 0.000, 0.000, 0.000, 0, 0, 0, 0, 0, 0, 0, 0, 0, 0, 1774154355443, 0, 04:39:15.443
80, 43290.34, 17084.26, 11183.78, 8256.29, -10182.26, -4856.16, 17759.10, -43862.60, 0.000, 0.000, 0.000, 0, 0, 0, 0, 0, 0, 0, 0, 0, 0, 1774154355447, 0, 04:39:15.447
81, 37678.47, 32100.17, 10009.49, 11551.37, -6693.20, -19805.90, 4640.24, -30686.73, 0.000, 0.000, 0.000, 0, 0, 0, 0, 0, 0, 0, 0, 0, 0, 1774154355451, 0, 04:39:15.451
82, 26935.08, 47668.34, 10666.74, 13437.89, -680.00, -31635.75, -5451.20, -15759.27, 0.000, 0.000, 0.000, 0, 0, 0, 0, 0, 0, 0, 0, 0, 0, 1774154355455, 0, 04:39:15.455
83, 11503.35, 53792.76, 17137.68, 6019.74, 13729.62, -37522.35, -11005.06, 2425.43, 0.000, 0.000, 0.000, 0, 0, 0, 0, 0, 0, 0, 0, 0, 0, 1774154355459, 0, 04:39:15.459
84, -460.17, 54456.93, 24652.26, 25.87, 25693.40, -39398.46, -12350.18, 20890.88, 0.000, 0.000, 0.000, 0, 0, 0, 0, 0, 0, 0, 0, 0, 0, 1774154355463, 0, 04:39:15.463
85, -8292.33, 44738.26, 31948.42, -2264.76, 36075.57, -30920.36, -7264.77, 30371.93, 0.000, 0.000, 0.000, 0, 0, 0, 0, 0, 0, 0, 0, 0, 0, 1774154355467, 0, 04:39:15.467
86, -14346.09, 31842.07, 37324.29, 1120.17, 39312.90, -18508.74, -1978.40, 32718.57, 0.000, 0.000, 0.000, 0, 0, 0, 0, 0, 0, 0, 0, 0, 0, 1774154355471, 0, 04:39:15.471
87, -13182.88, 14489.07, 32885.85, 7728.30, 38128.25, 1.46, 6209.64, 30904.80, 0.000, 0.000, 0.000, 0, 0, 0, 0, 0, 0, 0, 0, 0, 0, 1774154355475, 0, 04:39:15.475
88, -6964.53, -1729.31, 24494.22, 16192.66, 28216.70, 17133.63, 9902.52, 26807.72, 0.000, 0.000, 0.000, 0, 0, 0, 0, 0, 0, 0, 0, 0, 0, 1774154355479, 0, 04:39:15.479
89, 715.04, -15179.46, 12627.16, 30332.70, 14722.10, 32446.45, 10792.79, 18394.93, 0.000, 0.000, 0.000, 0, 0, 0, 0, 0, 0, 0, 0, 0, 0, 1774154355483, 0, 04:39:15.483
90, 6200.76, -23235.31, -5878.55, 41615.01, -5535.62, 43070.86, 5099.02, 13053.98, 0.000, 0.000, 0.000, 0, 0, 0, 0, 0, 0, 0, 0, 0, 0, 1774154355487, 0, 04:39:15.487
91, 10317.02, -25804.85, -22612.95, 48889.77, -23365.33, 45792.05, -4306.15, 10530.91, 0.000, 0.000, 0.000, 0, 0, 0, 0, 0, 0, 0, 0, 0, 0, 1774154355491, 0, 04:39:15.491
92, 8196.27, -21728.76, -39970.89, 50837.23, -36861.40, 41011.57, -14930.31, 12056.82, 0.000, 0.000, 0.000, 0, 0, 0, 0, 0, 0, 0, 0, 0, 0, 1774154355495, 0, 04:39:15.495
93, 1781.14, -13516.31, -48740.56, 45933.42, -46630.16, 31611.28, -25305.96, 18628.86, 0.000, 0.000, 0.000, 0, 0, 0, 0, 0, 0, 0, 0, 0, 0, 1774154355499, 0, 04:39:15.499
94, -8202.93, -4921.21, -51207.68, 34286.11, -48363.38, 21773.59, -33209.97, 26995.08, 0.000, 0.000, 0.000, 0, 0, 0, 0, 0, 0, 0, 0, 0, 0, 1774154355503, 0, 04:39:15.503
95, -17251.66, 615.48, -44646.85, 16496.81, -41292.78, 9654.13, -35096.42, 32381.46, 0.000, 0.000, 0.000, 0, 0, 0, 0, 0, 0, 0, 0, 0, 0, 1774154355507, 0, 04:39:15.507
96, -28049.09, 3812.24, -34314.16, -3921.52, -30673.53, 542.09, -28403.62, 36156.51, 0.000, 0.000, 0.000, 0, 0, 0, 0, 0, 0, 0, 0, 0, 0, 1774154355511, 0, 04:39:15.511
97, -33503.72, 493.64, -16650.22, -21586.09, -17924.76, -3441.35, -17557.84, 36555.17, 0.000, 0.000, 0.000, 0, 0, 0, 0, 0, 0, 0, 0, 0, 0, 1774154355515, 0, 04:39:15.515
98, -27810.72, -6522.64, -1274.31, -33267.02, -5532.41, -1094.51, -1139.83, 30364.94, 0.000, 0.000, 0.000, 0, 0, 0, 0, 0, 0, 0, 0, 0, 0, 1774154355519, 0, 04:39:15.519
99, -20460.77, -14256.38, 11174.02, -41693.86, 2580.89, 2343.87, 17895.55, 15380.12, 0.000, 0.000, 0.000, 0, 0, 0, 0, 0, 0, 0, 0, 0, 0, 1774154355523, 0, 04:39:15.523
100, -5442.39, -21411.13, 18537.42, -40710.22, 6993.82, 7441.57, 35687.08, -718.30, 0.000, 0.000, 0.000, 0, 0, 0, 0, 0, 0, 0, 0, 0, 0, 1774154355527, 0, 04:39:15.527
101, 12893.84, -25521.35, 19776.82, -34138.19, 6271.10, 11483.47, 47236.04, -20443.47, 0.000, 0.000, 0.000, 0, 0, 0, 0, 0, 0, 0, 0, 0, 0, 1774154355531, 0, 04:39:15.531
102, 27038.31, -23011.36, 17580.08, -23327.28, 3259.11, 11624.90, 53223.06, -35584.36, 0.000, 0.000, 0.000, 0, 0, 0, 0, 0, 0, 0, 0, 0, 0, 1774154355535, 0, 04:39:15.535
103, 40182.39, -18102.23, 8912.05, -11223.24, -2183.49, 6061.42, 51749.39, -47166.64, 0.000, 0.000, 0.000, 0, 0, 0, 0, 0, 0, 0, 0, 0, 0, 1774154355539, 0, 04:39:15.539
104, 46314.60, -5249.15, 2691.38, -54.28, -5401.23, -3120.30, 42976.29, -49368.62, 0.000, 0.000, 0.000, 0, 0, 0, 0, 0, 0, 0, 0, 0, 0, 1774154355543, 0, 04:39:15.543
105, 45901.51, 10498.81, -1668.98, 6236.18, -4035.02, -16906.33, 28879.80, -44974.62, 0.000, 0.000, 0.000, 0, 0, 0, 0, 0, 0, 0, 0, 0, 0, 1774154355547, 0, 04:39:15.547
106, 38738.22, 25310.49, -3985.17, 7257.06, 1893.31, -32266.54, 14069.95, -33264.60, 0.000, 0.000, 0.000, 0, 0, 0, 0, 0, 0, 0, 0, 0, 0, 1774154355551, 0, 04:39:15.551
107, 25353.42, 36745.81, -3726.07, 3262.30, 11370.11, -43954.39, 2248.07, -17095.82, 0.000, 0.000, 0.000, 0, 0, 0, 0, 0, 0, 0, 0, 0, 0, 1774154355555, 0, 04:39:15.555
108, 9384.78, 41669.75, 4038.23, -1775.16, 25908.61, -52363.85, -5067.17, -3028.36, 0.000, 0.000, 0.000, 0, 0, 0, 0, 0, 0, 0, 0, 0, 0, 1774154355559, 0, 04:39:15.559
109, -6928.32, 40997.49, 13888.59, -8474.69, 37477.55, -51769.30, -8169.82, 9163.47, 0.000, 0.000, 0.000, 0, 0, 0, 0, 0, 0, 0, 0, 0, 0, 1774154355563, 0, 04:39:15.563
110, -18868.63, 31635.20, 21875.47, -12687.35, 47597.26, -43775.46, -7286.12, 19554.50, 0.000, 0.000, 0.000, 0, 0, 0, 0, 0, 0, 0, 0, 0, 0, 1774154355567, 0, 04:39:15.567
111, -22604.93, 16622.13, 25798.49, -9768.90, 55516.28, -29412.63, -2226.07, 22869.31, 0.000, 0.000, 0.000, 0, 0, 0, 0, 0, 0, 0, 0, 0, 0, 1774154355571, 0, 04:39:15.571
112, -23339.99, 303.74, 27066.90, -8101.20, 52659.18, -10999.71, 3019.74, 20101.97, 0.000, 0.000, 0.000, 0, 0, 0, 0, 0, 0, 0, 0, 0, 0, 1774154355575, 0, 04:39:15.575
113, -18454.80, -16385.49, 20192.25, 3937.65, 44036.24, 8091.90, 3746.26, 13276.18, 0.000, 0.000, 0.000, 0, 0, 0, 0, 0, 0, 0, 0, 0, 0, 1774154355579, 0, 04:39:15.579
114, -12096.15, -27654.46, 9823.16, 14672.15, 27446.34, 26038.49, 4103.34, 6965.25, 0.000, 0.000, 0.000, 0, 0, 0, 0, 0, 0, 0, 0, 0, 0, 1774154355583, 0, 04:39:15.583
115, -7038.75, -34464.42, -7585.91, 27554.64, 9361.85, 35330.54, -3625.76, -504.70, 0.000, 0.000, 0.000, 0, 0, 0, 0, 0, 0, 0, 0, 0, 0, 1774154355587, 0, 04:39:15.587
116, -3881.53, -36047.21, -22212.75, 38369.02, -10218.25, 40416.41, -12830.20, -3361.41, 0.000, 0.000, 0.000, 0, 0, 0, 0, 0, 0, 0, 0, 0, 0, 1774154355591, 0, 04:39:15.591
117, -6073.82, -30011.79, -37290.77, 38152.45, -25157.88, 38467.76, -25588.52, -1949.13, 0.000, 0.000, 0.000, 0, 0, 0, 0, 0, 0, 0, 0, 0, 0, 1774154355595, 0, 04:39:15.595
118, -11903.53, -22320.36, -44259.21, 34241.00, -35233.86, 31351.38, -39746.00, 3453.90, 0.000, 0.000, 0.000, 0, 0, 0, 0, 0, 0, 0, 0, 0, 0, 1774154355599, 0, 04:39:15.599
119, -22093.94, -11168.70, -42504.00, 24035.09, -37884.20, 20433.72, -46949.50, 14077.58, 0.000, 0.000, 0.000, 0, 0, 0, 0, 0, 0, 0, 0, 0, 0, 1774154355603, 0, 04:39:15.603
120, -31308.53, -2307.13, -34498.25, 7600.03, -33227.90, 14306.69, -49147.63, 22753.89, 0.000, 0.000, 0.000, 0, 0, 0, 0, 0, 0, 0, 0, 0, 0, 1774154355607, 0, 04:39:15.607
121, -38326.39, 2290.63, -22637.03, -8494.84, -25114.05, 6008.27, -44286.72, 27523.62, 0.000, 0.000, 0.000, 0, 0, 0, 0, 0, 0, 0, 0, 0, 0, 1774154355611, 0, 04:39:15.611
122, -40173.32, 580.09, -4870.44, -25848.39, -16282.91, 5248.24, -29607.36, 29254.89, 0.000, 0.000, 0.000, 0, 0, 0, 0, 0, 0, 0, 0, 0, 0, 1774154355615, 0, 04:39:15.615
123, -37027.48, -2107.81, 10723.95, -36274.51, -4201.36, 6487.44, -11116.90, 23826.49, 0.000, 0.000, 0.000, 0, 0, 0, 0, 0, 0, 0, 0, 0, 0, 1774154355619, 0, 04:39:15.619
124, -25173.01, -10581.10, 25410.81, -42762.38, 2241.24, 14087.28, 6377.20, 12275.83, 0.000, 0.000, 0.000, 0, 0, 0, 0, 0, 0, 0, 0, 0, 0, 1774154355623, 0, 04:39:15.623
125, -9320.02, -15910.58, 34498.82, -40575.18, 4288.40, 19510.09, 25524.64, -2933.89, 0.000, 0.000, 0.000, 0, 0, 0, 0, 0, 0, 0, 0, 0, 0, 1774154355627, 0, 04:39:15.627
126, 10210.34, -16490.86, 35274.31, -30198.35, 1941.08, 24040.90, 39716.19, -17950.61, 0.000, 0.000, 0.000, 0, 0, 0, 0, 0, 0, 0, 0, 0, 0, 1774154355631, 0, 04:39:15.631
127, 29921.94, -12790.66, 31696.38, -18297.99, -3547.04, 25901.65, 45559.42, -32258.35, 0.000, 0.000, 0.000, 0, 0, 0, 0, 0, 0, 0, 0, 0, 0, 1774154355635, 0, 04:39:15.635
128, 42440.10, -5185.34, 23482.68, -1434.48, -10956.80, 20325.91, 44994.70, -41047.85, 0.000, 0.000, 0.000, 0, 0, 0, 0, 0, 0, 0, 0, 0, 0, 1774154355639, 0, 04:39:15.639
129, 51610.78, 7908.65, 15446.27, 8072.13, -15391.70, 10248.79, 38045.13, -42567.46, 0.000, 0.000, 0.000, 0, 0, 0, 0, 0, 0, 0, 0, 0, 0, 1774154355643, 0, 04:39:15.643
130, 52341.95, 22271.32, 10772.45, 16449.26, -15070.54, -3154.70, 27825.58, -35627.63, 0.000, 0.000, 0.000, 0, 0, 0, 0, 0, 0, 0, 0, 0, 0, 1774154355647, 0, 04:39:15.647
131, 45216.39, 38277.82, 6159.67, 20390.39, -12383.74, -17869.79, 16035.61, -22042.26, 0.000, 0.000, 0.000, 0, 0, 0, 0, 0, 0, 0, 0, 0, 0, 1774154355651, 0, 04:39:15.651
132, 34901.02, 52355.13, 6529.13, 17318.03, -3268.28, -32584.22, 5373.65, -6191.60, 0.000, 0.000, 0.000, 0, 0, 0, 0, 0, 0, 0, 0, 0, 0, 1774154355655, 0, 04:39:15.655
133, 21868.40, 57773.01, 12260.86, 11164.99, 10442.02, -41094.11, -932.63, 10465.53, 0.000, 0.000, 0.000, 0, 0, 0, 0, 0, 0, 0, 0, 0, 0, 1774154355659, 0, 04:39:15.659
134, 7333.49, 55200.46, 18184.15, 8333.05, 23144.63, -41623.53, -2628.91, 25332.30, 0.000, 0.000, 0.000, 0, 0, 0, 0, 0, 0, 0, 0, 0, 0, 1774154355663, 0, 04:39:15.663
135, -2476.34, 46717.44, 25038.92, 1663.63, 33941.62, -35103.02, -733.26, 35532.41, 0.000, 0.000, 0.000, 0, 0, 0, 0, 0, 0, 0, 0, 0, 0, 1774154355667, 0, 04:39:15.667
136, -6901.41, 31369.69, 30066.74, 2342.57, 41351.40, -21787.39, 7490.33, 37773.57, 0.000, 0.000, 0.000, 0, 0, 0, 0, 0, 0, 0, 0, 0, 0, 1774154355671, 0, 04:39:15.671
137, -6676.15, 13724.54, 26255.59, 7073.52, 42217.56, -7517.34, 11848.88, 34698.49, 0.000, 0.000, 0.000, 0, 0, 0, 0, 0, 0, 0, 0, 0, 0, 1774154355675, 0, 04:39:15.675
138, -3881.32, -4947.94, 19354.94, 16777.70, 32974.03, 10376.30, 17445.75, 28007.28, 0.000, 0.000, 0.000, 0, 0, 0, 0, 0, 0, 0, 0, 0, 0, 1774154355679, 0, 04:39:15.679
139, 3148.89, -18407.26, 3448.14, 27667.29, 19286.13, 26296.61, 17152.87, 18718.90, 0.000, 0.000, 0.000, 0, 0, 0, 0, 0, 0, 0, 0, 0, 0, 1774154355683, 0, 04:39:15.683
140, 6905.70, -28206.23, -13977.87, 37052.36, 29.98, 36302.20, 9953.20, 11618.37, 0.000, 0.000, 0.000, 0, 0, 0, 0, 0, 0, 0, 0, 0, 0, 1774154355687, 0, 04:39:15.687
141, 7707.45, -30612.34, -31076.08, 44450.88, -14933.20, 36287.51, 432.11, 6990.57, 0.000, 0.000, 0.000, 0, 0, 0, 0, 0, 0, 0, 0, 0, 0, 1774154355691, 0, 04:39:15.691
142, 4926.19, -26239.24, -48540.76, 45534.49, -29136.66, 32549.70, -9634.26, 6432.26, 0.000, 0.000, 0.000, 0, 0, 0, 0, 0, 0, 0, 0, 0, 0, 1774154355695, 0, 04:39:15.695
143, -3471.24, -21119.81, -54560.18, 40234.31, -37825.05, 24621.08, -23677.72, 12526.25, 0.000, 0.000, 0.000, 0, 0, 0, 0, 0, 0, 0, 0, 0, 0, 1774154355699, 0, 04:39:15.699
144, -13793.28, -10006.74, -55673.01, 25584.26, -38005.24, 12528.04, -33409.05, 19336.46, 0.000, 0.000, 0.000, 0, 0, 0, 0, 0, 0, 0, 0, 0, 0, 1774154355703, 0, 04:39:15.703
145, -24922.23, -6204.22, -47443.36, 10503.37, -32203.81, 1736.50, -34543.05, 25424.13, 0.000, 0.000, 0.000, 0, 0, 0, 0, 0, 0, 0, 0, 0, 0, 1774154355707, 0, 04:39:15.707
146, -33302.56, -4000.96, -34739.69, -11741.72, -22546.78, -4857.50, -31799.36, 30336.79, 0.000, 0.000, 0.000, 0, 0, 0, 0, 0, 0, 0, 0, 0, 0, 1774154355711, 0, 04:39:15.711
147, -37033.52, -6108.42, -19856.26, -29315.30, -8420.56, -6535.83, -21957.35, 27437.47, 0.000, 0.000, 0.000, 0, 0, 0, 0, 0, 0, 0, 0, 0, 0, 1774154355715, 0, 04:39:15.715
148, -37733.10, -10849.25, -775.80, -43832.52, 4373.75, -7125.08, -4073.52, 19013.86, 0.000, 0.000, 0.000, 0, 0, 0, 0, 0, 0, 0, 0, 0, 0, 1774154355719, 0, 04:39:15.719
149, -27294.50, -19479.42, 12010.25, -50582.15, 11738.20, 753.48, 12310.27, 6753.59, 0.000, 0.000, 0.000, 0, 0, 0, 0, 0, 0, 0, 0, 0, 0, 1774154355723, 0, 04:39:15.723
150, -14125.34, -28358.62, 20430.22, -49300.29, 14931.72, 5520.27, 29531.32, -11002.45, 0.000, 0.000, 0.000, 0, 0, 0, 0, 0, 0, 0, 0, 0, 0, 1774154355727, 0, 04:39:15.727
151, 4600.18, -28929.02, 24384.12, -41870.69, 14401.34, 11429.16, 40034.74, -27201.19, 0.000, 0.000, 0.000, 0, 0, 0, 0, 0, 0, 0, 0, 0, 0, 1774154355731, 0, 04:39:15.731
152, 21087.81, -28219.39, 21648.99, -29515.65, 10618.83, 13795.22, 46156.14, -43483.65, 0.000, 0.000, 0.000, 0, 0, 0, 0, 0, 0, 0, 0, 0, 0, 1774154355735, 0, 04:39:15.735
153, 32931.50, -19469.59, 17341.36, -16795.57, 2861.48, 8781.73, 43152.34, -51746.54, 0.000, 0.000, 0.000, 0, 0, 0, 0, 0, 0, 0, 0, 0, 0, 1774154355739, 0, 04:39:15.739
154, 42486.49, -7085.79, 9626.24, -3752.17, -55.15, -779.17, 31821.21, -54094.31, 0.000, 0.000, 0.000, 0, 0, 0, 0, 0, 0, 0, 0, 0, 0, 1774154355743, 0, 04:39:15.743
155, 40862.91, 11130.75, 4675.92, 2589.33, -1992.04, -12508.47, 21491.45, -50210.32, 0.000, 0.000, 0.000, 0, 0, 0, 0, 0, 0, 0, 0, 0, 0, 1774154355747, 0, 04:39:15.747
156, 33671.29, 26633.07, 4236.62, 5181.96, 2890.58, -26896.97, 6920.04, -37882.80, 0.000, 0.000, 0.000, 0, 0, 0, 0, 0, 0, 0, 0, 0, 0, 1774154355751, 0, 04:39:15.751
157, 20857.92, 40464.27, 7869.03, 3784.57, 10984.75, -37720.67, -3582.79, -20324.55, 0.000, 0.000, 0.000, 0, 0, 0, 0, 0, 0, 0, 0, 0, 0, 1774154355755, 0, 04:39:15.755
158, 6687.71, 47239.33, 14890.33, 344.18, 22933.42, -44716.02, -12240.46, -2663.14, 0.000, 0.000, 0.000, 0, 0, 0, 0, 0, 0, 0, 0, 0, 0, 1774154355759, 0, 04:39:15.759
159, -5902.25, 48787.10, 24640.88, -5331.16, 37222.48, -43097.04, -14421.62, 9632.43, 0.000, 0.000, 0.000, 0, 0, 0, 0, 0, 0, 0, 0, 0, 0, 1774154355763, 0, 04:39:15.763
160, -16273.30, 41055.82, 32328.34, -8344.38, 44502.89, -36859.45, -13398.47, 21776.93, 0.000, 0.000, 0.000, 0, 0, 0, 0, 0, 0, 0, 0, 0, 0, 1774154355767, 0, 04:39:15.767
161, -20303.85, 25869.05, 36812.32, -8041.75, 50682.32, -21860.25, -8069.86, 23748.98, 0.000, 0.000, 0.000, 0, 0, 0, 0, 0, 0, 0, 0, 0, 0, 1774154355771, 0, 04:39:15.771
162, -19236.23, 9550.92, 37033.91, -1319.71, 49191.39, -3590.53, -1428.07, 23736.99, 0.000, 0.000, 0.000, 0, 0, 0, 0, 0, 0, 0, 0, 0, 0, 1774154355775, 0, 04:39:15.775
163, -13068.12, -6667.41, 28728.62, 9357.30, 38312.91, 16854.06, 2213.56, 19798.81, 0.000, 0.000, 0.000, 0, 0, 0, 0, 0, 0, 0, 0, 0, 0, 1774154355779, 0, 04:39:15.779
164, -7209.44, -17619.70, 15991.49, 24777.84, 20532.00, 32046.15, 3639.18, 14733.45, 0.000, 0.000, 0.000, 0, 0, 0, 0, 0, 0, 0, 0, 0, 0, 1774154355783, 0, 04:39:15.783
165, -1583.47, -25453.56, 1036.40, 36738.80, 1171.43, 43788.90, -2542.36, 6458.38, 0.000, 0.000, 0.000, 0, 0, 0, 0, 0, 0, 0, 0, 0, 0, 1774154355787, 0, 04:39:15.787
166, 4204.84, -25739.28, -16007.69, 44634.25, -17772.64, 47500.17, -12510.73, 3629.41, 0.000, 0.000, 0.000, 0, 0, 0, 0, 0, 0, 0, 0, 0, 0, 1774154355791, 0, 04:39:15.791
167, 2033.35, -19187.64, -31568.13, 48046.41, -33013.93, 47041.52, -23384.01, 6805.01, 0.000, 0.000, 0.000, 0, 0, 0, 0, 0, 0, 0, 0, 0, 0, 1774154355795, 0, 04:39:15.795
168, -2175.08, -11774.47, -40416.88, 43752.13, -43024.67, 36893.54, -32412.11, 13905.55, 0.000, 0.000, 0.000, 0, 0, 0, 0, 0, 0, 0, 0, 0, 0, 1774154355799, 0, 04:39:15.799
169, -11495.43, -1925.17, -39850.14, 32724.89, -47178.82, 26021.11, -40418.53, 22188.12, 0.000, 0.000, 0.000, 0, 0, 0, 0, 0, 0, 0, 0, 0, 0, 1774154355803, 0, 04:39:15.803
170, -21394.89, 4068.02, -34110.33, 17859.46, -42747.05, 17058.00, -41482.51, 30646.49, 0.000, 0.000, 0.000, 0, 0, 0, 0, 0, 0, 0, 0, 0, 0, 1774154355807, 0, 04:39:15.807
171, -28293.01, 9415.69, -22239.98, -957.14, -33462.44, 10836.87, -34193.10, 36734.28, 0.000, 0.000, 0.000, 0, 0, 0, 0, 0, 0, 0, 0, 0, 0, 1774154355811, 0, 04:39:15.811
172, -29452.73, 9115.93, -7227.07, -15695.98, -21260.30, 6085.00, -22957.51, 37830.78, 0.000, 0.000, 0.000, 0, 0, 0, 0, 0, 0, 0, 0, 0, 0, 1774154355815, 0, 04:39:15.815
173, -25500.50, 2646.05, 8914.77, -28785.16, -8292.78, 7424.10, -6222.11, 31341.22, 0.000, 0.000, 0.000, 0, 0, 0, 0, 0, 0, 0, 0, 0, 0, 1774154355819, 0, 04:39:15.819
174, -16784.15, -4164.77, 21058.73, -34505.44, -2909.69, 13038.85, 14797.88, 18763.61, 0.000, 0.000, 0.000, 0, 0, 0, 0, 0, 0, 0, 0, 0, 0, 1774154355823, 0, 04:39:15.823
175, -902.00, -13080.80, 27626.66, -33612.83, 460.98, 18021.95, 33989.99, 2912.04, 0.000, 0.000, 0.000, 0, 0, 0, 0, 0, 0, 0, 0, 0, 0, 1774154355827, 0, 04:39:15.827
176, 18398.25, -15788.57, 29303.32, -26838.81, -834.92, 21220.18, 47050.32, -14043.04, 0.000, 0.000, 0.000, 0, 0, 0, 0, 0, 0, 0, 0, 0, 0, 1774154355831, 0, 04:39:15.831
177, 34535.46, -15338.96, 24925.42, -14179.94, -3662.16, 19879.41, 52519.73, -29527.07, 0.000, 0.000, 0.000, 0, 0, 0, 0, 0, 0, 0, 0, 0, 0, 1774154355835, 0, 04:39:15.835
178, 49409.54, -7410.17, 16344.21, -2226.86, -9556.48, 14988.12, 53893.12, -39034.22, 0.000, 0.000, 0.000, 0, 0, 0, 0, 0, 0, 0, 0, 0, 0, 1774154355839, 0, 04:39:15.839
179, 56390.93, 5743.11, 8621.69, 10337.65, -13882.68, 2329.71, 45669.55, -40474.17, 0.000, 0.000, 0.000, 0, 0, 0, 0, 0, 0, 0, 0, 0, 0, 1774154355843, 0, 04:39:15.843
180, 56260.23, 20202.71, 1978.00, 15854.76, -13027.13, -11784.99, 34076.11, -36317.49, 0.000, 0.000, 0.000, 0, 0, 0, 0, 0, 0, 0, 0, 0, 0, 1774154355847, 0, 04:39:15.847
181, 47514.65, 33621.59, -1419.47, 17097.08, -7859.55, -25764.86, 20987.46, -26361.96, 0.000, 0.000, 0.000, 0, 0, 0, 0, 0, 0, 0, 0, 0, 0, 1774154355851, 0, 04:39:15.851
182, 33711.84, 44920.68, -986.57, 13570.20, 3597.09, -39495.96, 8024.30, -8753.71, 0.000, 0.000, 0.000, 0, 0, 0, 0, 0, 0, 0, 0, 0, 0, 1774154355855, 0, 04:39:15.855
183, 17658.34, 49894.14, 5458.67, 8549.53, 19529.89, -48742.12, 1908.75, 6506.70, 0.000, 0.000, 0.000, 0, 0, 0, 0, 0, 0, 0, 0, 0, 0, 1774154355859, 0, 04:39:15.859
184, 3593.18, 48985.51, 12511.01, -1186.94, 32119.69, -52173.34, -153.01, 18153.22, 0.000, 0.000, 0.000, 0, 0, 0, 0, 0, 0, 0, 0, 0, 0, 1774154355863, 0, 04:39:15.863
185, -7259.49, 40398.58, 18464.42, -3120.64, 43529.19, -45195.96, 1945.55, 27287.12, 0.000, 0.000, 0.000, 0, 0, 0, 0, 0, 0, 0, 0, 0, 0, 1774154355867, 0, 04:39:15.867
186, -13410.35, 24128.61, 24005.19, -5584.98, 49697.65, -31758.14, 6237.58, 29034.82, 0.000, 0.000, 0.000, 0, 0, 0, 0, 0, 0, 0, 0, 0, 0, 1774154355871, 0, 04:39:15.871
187, -12382.43, 2824.89, 22109.76, -2382.59, 48670.14, -14157.54, 10985.28, 26733.61, 0.000, 0.000, 0.000, 0, 0, 0, 0, 0, 0, 0, 0, 0, 0, 1774154355875, 0, 04:39:15.875
188, -9884.31, -12072.75, 16738.39, 6817.93, 42646.97, 2942.39, 11625.65, 18244.64, 0.000, 0.000, 0.000, 0, 0, 0, 0, 0, 0, 0, 0, 0, 0, 1774154355879, 0, 04:39:15.879
189, -6548.30, -26578.51, 2825.87, 17066.33, 28599.28, 19398.98, 11510.39, 9571.98, 0.000, 0.000, 0.000, 0, 0, 0, 0, 0, 0, 0, 0, 0, 0, 1774154355883, 0, 04:39:15.883
190, -960.48, -36956.06, -14010.65, 29749.73, 10046.03, 31568.40, 4038.88, 1918.98, 0.000, 0.000, 0.000, 0, 0, 0, 0, 0, 0, 0, 0, 0, 0, 1774154355887, 0, 04:39:15.887
191, -240.78, -37450.17, -30790.27, 35550.60, -6214.93, 34155.32, -4960.91, -3198.76, 0.000, 0.000, 0.000, 0, 0, 0, 0, 0, 0, 0, 0, 0, 0, 1774154355891, 0, 04:39:15.891
192, -3161.99, -32013.26, -44099.26, 38133.86, -21862.44, 31298.98, -18391.78, -26.44, 0.000, 0.000, 0.000, 0, 0, 0, 0, 0, 0, 0, 0, 0, 0, 1774154355895, 0, 04:39:15.895
193, -10197.52, -24563.37, -52404.93, 33527.01, -30084.88, 22604.57, -32985.95, 4196.29, 0.000, 0.000, 0.000, 0, 0, 0, 0, 0, 0, 0, 0, 0, 0, 1774154355899, 0, 04:39:15.899
194, -20293.20, -17297.96, -52734.06, 19839.09, -32444.01, 12130.54, -41387.10, 10396.08, 0.000, 0.000, 0.000, 0, 0, 0, 0, 0, 0, 0, 0, 0, 0, 1774154355903, 0, 04:39:15.903
195, -32177.80, -8436.97, -43981.20, 3314.38, -28190.03, 3164.90, -44316.10, 18672.72, 0.000, 0.000, 0.000, 0, 0, 0, 0, 0, 0, 0, 0, 0, 0, 1774154355907, 0, 04:39:15.907
196, -39614.57, -7374.96, -29101.74, -16272.38, -19375.11, -3453.35, -39685.74, 24062.67, 0.000, 0.000, 0.000, 0, 0, 0, 0, 0, 0, 0, 0, 0, 0, 1774154355911, 0, 04:39:15.911
197, -45205.51, -6606.81, -13336.56, -32484.22, -7074.21, -3555.87, -30971.92, 22984.33, 0.000, 0.000, 0.000, 0, 0, 0, 0, 0, 0, 0, 0, 0, 0, 1774154355915, 0, 04:39:15.915
198, -41134.10, -10020.21, 5708.52, -42098.49, 4471.24, -279.93, -15377.97, 17992.13, 0.000, 0.000, 0.000, 0, 0, 0, 0, 0, 0, 0, 0, 0, 0, 1774154355919, 0, 04:39:15.919
199, -28834.61, -17388.95, 20582.13, -48992.35, 10531.64, 4885.53, 4769.91, 7245.77, 0.000, 0.000, 0.000, 0, 0, 0, 0, 0, 0, 0, 0, 0, 0, 1774154355923, 0, 04:39:15.923
200, -15264.21, -23377.87, 29905.37, -47681.96, 13770.11, 13253.88, 19337.92, -11139.34, 0.000, 0.000, 0.000, 0, 0, 0, 0, 0, 0, 0, 0, 0, 0, 1774154355927, 0, 04:39:15.927
201, 4482.01, -24226.06, 32606.27, -39179.92, 9986.13, 20141.90, 34070.09, -28069.62, 0.000, 0.000, 0.000, 0, 0, 0, 0, 0, 0, 0, 0, 0, 0, 1774154355931, 0, 04:39:15.931
202, 21640.65, -20869.12, 30412.28, -25576.56, 5705.80, 22284.16, 40239.53, -42439.72, 0.000, 0.000, 0.000, 0, 0, 0, 0, 0, 0, 0, 0, 0, 0, 1774154355935, 0, 04:39:15.935
203, 36729.88, -11319.03, 26096.04, -11055.03, -1755.99, 17586.83, 39387.51, -52043.06, 0.000, 0.000, 0.000, 0, 0, 0, 0, 0, 0, 0, 0, 0, 0, 1774154355939, 0, 04:39:15.939
204, 44580.86, 2643.83, 18011.66, 1071.13, -8592.37, 7788.30, 30078.22, -50131.23, 0.000, 0.000, 0.000, 0, 0, 0, 0, 0, 0, 0, 0, 0, 0, 1774154355943, 0, 04:39:15.943
205, 45433.01, 20020.00, 11430.27, 10455.04, -9407.42, -4187.75, 19104.61, -44902.11, 0.000, 0.000, 0.000, 0, 0, 0, 0, 0, 0, 0, 0, 0, 0, 1774154355947, 0, 04:39:15.947
206, 38778.85, 36630.95, 9968.90, 12587.17, -4993.77, -17606.94, 6874.16, -30629.39, 0.000, 0.000, 0.000, 0, 0, 0, 0, 0, 0, 0, 0, 0, 0, 1774154355951, 0, 04:39:15.951
207, 28523.09, 49569.99, 12472.88, 11318.23, 1389.88, -32547.51, -5417.06, -13258.58, 0.000, 0.000, 0.000, 0, 0, 0, 0, 0, 0, 0, 0, 0, 0, 1774154355955, 0, 04:39:15.955
208, 13739.62, 56507.31, 17991.69, 8213.36, 13209.65, -36559.19, -10036.53, 2761.12, 0.000, 0.000, 0.000, 0, 0, 0, 0, 0, 0, 0, 0, 0, 0, 1774154355959, 0, 04:39:15.959
209, 2253.85, 55598.95, 25953.64, 2056.83, 26444.51, -38554.94, -11857.50, 18290.99, 0.000, 0.000, 0.000, 0, 0, 0, 0, 0, 0, 0, 0, 0, 0, 1774154355963, 0, 04:39:15.963
210, -6659.95, 46537.64, 34617.39, 978.20, 38353.42, -31359.17, -9159.09, 31044.65, 0.000, 0.000, 0.000, 0, 0, 0, 0, 0, 0, 0, 0, 0, 0, 1774154355967, 0, 04:39:15.967
211, -11424.78, 32671.83, 36878.03, 1584.91, 40701.40, -17694.01, -2055.07, 33674.88, 0.000, 0.000, 0.000, 0, 0, 0, 0, 0, 0, 0, 0, 0, 0, 1774154355971, 0, 04:39:15.971
212, -10804.99, 16145.97, 34192.02, 6041.14, 39641.27, 265.38, 4579.44, 31561.82, 0.000, 0.000, 0.000, 0, 0, 0, 0, 0, 0, 0, 0, 0, 0, 1774154355975, 0, 04:39:15.975
213, -4875.52, -169.63, 26626.74, 17941.19, 30156.73, 16938.53, 10082.38, 25509.46, 0.000, 0.000, 0.000, 0, 0, 0, 0, 0, 0, 0, 0, 0, 0, 1774154355979, 0, 04:39:15.979
214, 1528.12, -12449.11, 12608.44, 28727.16, 14248.13, 32796.98, 9591.33, 19030.40, 0.000, 0.000, 0.000, 0, 0, 0, 0, 0, 0, 0, 0, 0, 0, 1774154355983, 0, 04:39:15.983
215, 8803.10, -21518.82, -6915.29, 42529.00, -3505.31, 43149.42, 5636.00, 14364.12, 0.000, 0.000, 0.000, 0, 0, 0, 0, 0, 0, 0, 0, 0, 0, 1774154355987, 0, 04:39:15.987
216, 9282.82, -22083.42, -23311.72, 49745.93, -22340.37, 45613.51, -3936.61, 10829.14, 0.000, 0.000, 0.000, 0, 0, 0, 0, 0, 0, 0, 0, 0, 0, 1774154355991, 0, 04:39:15.991
217, 8854.07, -18036.42, -37652.41, 53556.31, -37095.11, 41729.52, -15441.43, 11899.15, 0.000, 0.000, 0.000, 0, 0, 0, 0, 0, 0, 0, 0, 0, 0, 1774154355995, 0, 04:39:15.995
218, 953.46, -11808.92, -47343.57, 47528.67, -47036.94, 31927.58, -25275.96, 18587.98, 0.000, 0.000, 0.000, 0, 0, 0, 0, 0, 0, 0, 0, 0, 0, 1774154355999, 0, 04:39:15.999
219, -8382.59, -3037.96, -47598.91, 33341.91, -47115.82, 21111.88, -33628.73, 26110.76, 0.000, 0.000, 0.000, 0, 0, 0, 0, 0, 0, 0, 0, 0, 0, 1774154356003, 0, 04:39:16.003
220, -16517.97, 2243.81, -42655.13, 15080.92, -40898.15, 10150.09, -33743.00, 32549.51, 0.000, 0.000, 0.000, 0, 0, 0, 0, 0, 0, 0, 0, 0, 0, 1774154356007, 0, 04:39:16.007
221, -25540.76, 5687.52, -30507.79, -3326.70, -31106.47, 1797.70, -28532.80, 38998.69, 0.000, 0.000, 0.000, 0, 0, 0, 0, 0, 0, 0, 0, 0, 0, 1774154356011, 0, 04:39:16.011
222, -30876.92, 2515.05, -13867.39, -21893.83, -17299.95, -2506.80, -17680.45, 35347.63, 0.000, 0.000, 0.000, 0, 0, 0, 0, 0, 0, 0, 0, 0, 0, 1774154356015, 0, 04:39:16.015
223, -29093.67, -5551.77, -19.41, -32839.57, -5518.93, -1238.06, 13.99, 29198.48, 0.000, 0.000, 0.000, 0, 0, 0, 0, 0, 0, 0, 0, 0, 0, 1774154356019, 0, 04:39:16.019
224, -21259.68, -12746.59, 12191.83, -41409.70, 2931.46, 2890.57, 17770.86, 14643.11, 0.000, 0.000, 0.000, 0, 0, 0, 0, 0, 0, 0, 0, 0, 0, 1774154356023, 0, 04:39:16.023
225, -4652.23, -19083.17, 20513.17, -40189.47, 6769.43, 9772.76, 33995.70, -1467.10, 0.000, 0.000, 0.000, 0, 0, 0, 0, 0, 0, 0, 0, 0, 0, 1774154356027, 0, 04:39:16.027
226, 15190.58, -24938.64, 20797.81, -34450.45, 6511.11, 12234.56, 47047.47, -20768.87, 0.000, 0.000, 0.000, 0, 0, 0, 0, 0, 0, 0, 0, 0, 0, 1774154356031, 0, 04:39:16.031
227, 30105.17, -23290.39, 17710.41, -23362.49, 1863.38, 10978.51, 52794.50, -36089.15, 0.000, 0.000, 0.000, 0, 0, 0, 0, 0, 0, 0, 0, 0, 0, 1774154356035, 0, 04:39:16.035
228, 42019.10, -16099.97, 9999.57, -11034.50, -1957.99, 4987.21, 51045.01, -44979.61, 0.000, 0.000, 0.000, 0, 0, 0, 0, 0, 0, 0, 0, 0, 0, 1774154356039, 0, 04:39:16.039
229, 49315.11, -5212.79, 3168.06, 392.45, -4946.37, -4781.95, 41917.81, -49528.51, 0.000, 0.000, 0.000, 0, 0, 0, 0, 0, 0, 0, 0, 0, 0, 1774154356043, 0, 04:39:16.043
230, 46360.87, 11409.14, -3542.43, 6089.71, -3158.65, -18729.55, 29527.24, -45488.30, 0.000, 0.000, 0.000, 0, 0, 0, 0, 0, 0, 0, 0, 0, 0, 1774154356047, 0, 04:39:16.047
231, 39176.94, 24890.91, -5420.99, 6254.90, 1158.90, -32757.05, 13571.49, -35565.53, 0.000, 0.000, 0.000, 0, 0, 0, 0, 0, 0, 0, 0, 0, 0, 1774154356051, 0, 04:39:16.051
232, 26019.78, 37373.75, -1610.01, 5412.11, 10050.60, -46303.95, 1591.73, -19625.99, 0.000, 0.000, 0.000, 0, 0, 0, 0, 0, 0, 0, 0, 0, 0, 1774154356055, 0, 04:39:16.055
233, 10058.43, 44669.72, 4765.98, -2312.91, 22803.37, -51894.15, -5076.68, -4750.44, 0.000, 0.000, 0.000, 0, 0, 0, 0, 0, 0, 0, 0, 0, 0, 1774154356059, 0, 04:39:16.059
234, -4043.31, 42400.63, 12146.30, -8808.07, 37608.23, -54222.87, -11581.37, 10481.93, 0.000, 0.000, 0.000, 0, 0, 0, 0, 0, 0, 0, 0, 0, 0, 1774154356063, 0, 04:39:16.063
235, -15634.56, 32902.04, 20931.12, -14949.42, 49571.15, -46769.09, -8971.13, 19222.21, 0.000, 0.000, 0.000, 0, 0, 0, 0, 0, 0, 0, 0, 0, 0, 1774154356067, 0, 04:39:16.067
236, -21216.20, 19075.16, 26245.20, -11661.92, 54283.26, -31150.01, -5251.42, 21133.01, 0.000, 0.000, 0.000, 0, 0, 0, 0, 0, 0, 0, 0, 0, 0, 1774154356071, 0, 04:39:16.071
237, -22731.31, 1441.06, 26124.18, -6800.95, 53356.15, -13318.39, 253.71, 20029.23, 0.000, 0.000, 0.000, 0, 0, 0, 0, 0, 0, 0, 0, 0, 0, 1774154356075, 0, 04:39:16.075
238, -17318.36, -15013.01, 20689.16, 2987.13, 43607.79, 5609.11, 2670.69, 13351.34, 0.000, 0.000, 0.000, 0, 0, 0, 0, 0, 0, 0, 0, 0, 0, 1774154356079, 0, 04:39:16.079
239, -10578.77, -27201.02, 8402.79, 14831.79, 29075.99, 22886.52, 2159.41, 4338.56, 0.000, 0.000, 0.000, 0, 0, 0, 0, 0, 0, 0, 0, 0, 0, 1774154356083, 0, 04:39:16.083
240, -7362.91, -35295.41, -6403.46, 26636.78, 8137.52, 34219.07, -4382.95, -1619.04, 0.000, 0.000, 0.000, 0, 0, 0, 0, 0, 0, 0, 0, 0, 0, 1774154356087, 0, 04:39:16.087
241, -4730.29, -34927.71, -22607.64, 35435.61, -8142.44, 39597.73, -16135.29, -5322.91, 0.000, 0.000, 0.000, 0, 0, 0, 0, 0, 0, 0, 0, 0, 0, 1774154356091, 0, 04:39:16.091
242, -4547.21, -29820.10, -35311.48, 39010.76, -26463.74, 37098.26, -28033.41, -3082.51, 0.000, 0.000, 0.000, 0, 0, 0, 0, 0, 0, 0, 0, 0, 0, 1774154356095, 0, 04:39:16.095
243, -12036.42, -21893.51, -42949.36, 34993.94, -34945.51, 30141.23, -39353.67, 2421.85, 0.000, 0.000, 0.000, 0, 0, 0, 0, 0, 0, 0, 0, 0, 0, 1774154356099, 0, 04:39:16.099
244, -19785.30, -11407.87, -43136.53, 23349.79, -39009.92, 21073.84, -46840.84, 11703.85, 0.000, 0.000, 0.000, 0, 0, 0, 0, 0, 0, 0, 0, 0, 0, 1774154356103, 0, 04:39:16.103
245, -31138.18, -1192.43, -34716.95, 8634.19, -35277.00, 12835.70, -47367.57, 20741.88, 0.000, 0.000, 0.000, 0, 0, 0, 0, 0, 0, 0, 0, 0, 0, 1774154356107, 0, 04:39:16.107
246, -36867.06, 1937.40, -21267.65, -9939.93, -26826.33, 7006.73, -43580.18, 25249.60, 0.000, 0.000, 0.000, 0, 0, 0, 0, 0, 0, 0, 0, 0, 0, 1774154356111, 0, 04:39:16.111
247, -40479.09, 26.05, -4894.16, -26468.53, -15581.72, 3982.85, -32797.81, 28016.75, 0.000, 0.000, 0.000, 0, 0, 0, 0, 0, 0, 0, 0, 0, 0, 1774154356115, 0, 04:39:16.115
248, -36203.14, -4457.51, 12675.44, -37371.92, -5333.88, 6646.28, -14588.76, 23028.31, 0.000, 0.000, 0.000, 0, 0, 0, 0, 0, 0, 0, 0, 0, 0, 1774154356119, 0, 04:39:16.119
249, -24054.58, -9463.45, 23070.50, -43534.48, 2027.14, 12042.50, 5153.23, 10954.78, 0.000, 0.000, 0.000, 0, 0, 0, 0, 0, 0, 0, 0, 0, 0, 1774154356123, 0, 04:39:16.123
250, -9255.64, -13606.39, 33021.52, -39573.92, 4519.42, 19243.52, 22663.10, -6512.78, 0.000, 0.000, 0.000, 0, 0, 0, 0, 0, 0, 0, 0, 0, 0, 1774154356127, 0, 04:39:16.127
251, 9583.24, -17499.80, 34853.33, -32197.89, 1111.54, 23958.40, 37129.44, -20470.53, 0.000, 0.000, 0.000, 0, 0, 0, 0, 0, 0, 0, 0, 0, 0, 1774154356131, 0, 04:39:16.131
252, 28843.83, -13381.59, 32345.97, -18713.64, -3406.51, 25427.64, 41641.52, -35264.27, 0.000, 0.000, 0.000, 0, 0, 0, 0, 0, 0, 0, 0, 0, 0, 1774154356135, 0, 04:39:16.135
253, 44589.59, -5630.83, 25226.73, -5488.73, -11500.13, 17766.10, 43729.06, -43078.91, 0.000, 0.000, 0.000, 0, 0, 0, 0, 0, 0, 0, 0, 0, 0, 1774154356139, 0, 04:39:16.139
254, 51319.20, 7987.71, 14056.48, 8276.95, -15562.65, 8990.95, 36027.18, -42581.17, 0.000, 0.000, 0.000, 0, 0, 0, 0, 0, 0, 0, 0, 0, 0, 1774154356143, 0, 04:39:16.143
255, 54102.96, 22606.31, 9733.87, 17744.59, -17061.05, -4606.82, 25401.56, -39743.00, 0.000, 0.000, 0.000, 0, 0, 0, 0, 0, 0, 0, 0, 0, 0, 1774154356147, 0, 04:39:16.147
0, 46640.62, 40412.02, 4281.86, 18840.22, -13618.07, -20238.92, 14663.17, -25696.22, 0.000, 0.000, 0.000, 0, 0, 0, 0, 0, 0, 0, 0, 0, 0, 1774154356151, 0, 04:39:16.151
1, 36302.00, 51424.20, 5575.82, 17271.10, -3617.00, -34373.76, 1925.33, -7798.52, 0.000, 0.000, 0.000, 0, 0, 0, 0, 0, 0, 0, 0, 0, 0, 1774154356155, 0, 04:39:16.155
2, 18842.90, 58276.20, 11452.16, 13396.57, 9480.18, -43089.73, -3037.38, 7867.34, 0.000, 0.000, 0.000, 0, 0, 0, 0, 0, 0, 0, 0, 0, 0, 1774154356159, 0, 04:39:16.159
3, 6583.63, 54835.51, 18382.60, 5669.90, 22608.85, -42699.07, -3890.22, 22153.48, 0.000, 0.000, 0.000, 0, 0, 0, 0, 0, 0, 0, 0, 0, 0, 1774154356163, 0, 04:39:16.163
4, -4494.04, 46144.31, 23583.83, 603.15, 34275.94, -38049.09, -1222.45, 33866.62, 0.000, 0.000, 0.000, 0, 0, 0, 0, 0, 0, 0, 0, 0, 0, 1774154356167, 0, 04:39:16.167
5, -8996.97, 30857.58, 28417.60, 648.67, 40827.84, -26464.72, 3201.24, 35389.48, 0.000, 0.000, 0.000, 0, 0, 0, 0, 0, 0, 0, 0, 0, 0, 1774154356171, 0, 04:39:16.171
6, -8086.40, 11987.57, 25908.26, 5899.07, 39290.48, -7702.97, 12056.52, 32975.80, 0.000, 0.000, 0.000, 0, 0, 0, 0, 0, 0, 0, 0, 0, 0, 1774154356175, 0, 04:39:16.175
7, -4487.70, -5530.72, 17500.20, 14191.15, 28743.23, 9138.99, 14567.48, 25534.33, 0.000, 0.000, 0.000, 0, 0, 0, 0, 0, 0, 0, 0, 0, 0, 1774154356179, 0, 04:39:16.179
8, 1174.57, -20590.73, 1985.68, 25320.70, 18892.63, 23200.25, 13842.44, 16624.78, 0.000, 0.000, 0.000, 0, 0, 0, 0, 0, 0, 0, 0, 0, 0, 1774154356183, 0, 04:39:16.183
9, 6075.21, -29700.46, -15192.15, 37155.95, -111.12, 31763.52, 8470.39, 10165.04, 0.000, 0.000, 0.000, 0, 0, 0, 0, 0, 0, 0, 0, 0, 0, 1774154356187, 0, 04:39:16.187
10, 7965.02, -30060.97, -32924.26, 44106.07, -17838.61, 35029.40, -1615.13, 6666.65, 0.000, 0.000, 0.000, 0, 0, 0, 0, 0, 0, 0, 0, 0, 0, 1774154356191, 0, 04:39:16.191
11, 3853.32, -27264.34, -46004.04, 42706.18, -32042.96, 32202.05, -14827.68, 3856.03, 0.000, 0.000, 0.000, 0, 0, 0, 0, 0, 0, 0, 0, 0, 0, 1774154356195, 0, 04:39:16.195
12, -2302.71, -21987.29, -58584.00, 37234.08, -39409.19, 20760.16, -25771.03, 9707.80, 0.000, 0.000, 0.000, 0, 0, 0, 0, 0, 0, 0, 0, 0, 0, 1774154356199, 0, 04:39:16.199
13, -13234.20, -13090.50, -57865.09, 24542.13, -40571.05, 9521.48, -35199.29, 16482.11, 0.000, 0.000, 0.000, 0, 0, 0, 0, 0, 0, 0, 0, 0, 0, 1774154356203, 0, 04:39:16.203
14, -25123.06, -8341.53, -50183.89, 7550.35, -34952.14, -319.82, -37025.78, 22763.63, 0.000, 0.000, 0.000, 0, 0, 0, 0, 0, 0, 0, 0, 0, 0, 1774154356207, 0, 04:39:16.207
15, -34423.60, -6578.81, -38025.78, -11811.23, -24201.38, -7301.50, -33060.36, 27728.72, 0.000, 0.000, 0.000, 0, 0, 0, 0, 0, 0, 0, 0, 0, 0, 1774154356211, 0, 04:39:16.211
16, -39239.31, -6906.03, -20609.83, -28713.25, -10269.81, -10574.85, -21260.09, 25715.94, 0.000, 0.000, 0.000, 0, 0, 0, 0, 0, 0, 0, 0, 0, 0, 1774154356215, 0, 04:39:16.215
17, -35723.81, -15293.68, -3547.77, -45045.59, 3047.92, -7675.76, -7169.89, 19663.39, 0.000, 0.000, 0.000, 0, 0, 0, 0, 0, 0, 0, 0, 0, 0, 1774154356219, 0, 04:39:16.219
18, -28764.15, -20697.63, 10052.37, -51668.74, 10566.57, -1907.86, 9931.17, 5709.06, 0.000, 0.000, 0.000, 0, 0, 0, 0, 0, 0, 0, 0, 0, 0, 1774154356223, 0, 04:39:16.223
19, -14573.86, -28549.30, 19631.59, -49914.29, 14554.51, 3940.60, 25449.76, -11091.98, 0.000, 0.000, 0.000, 0, 0, 0, 0, 0, 0, 0, 0, 0, 0, 1774154356227, 0, 04:39:16.227
20, 2377.53, -31776.84, 23070.44, -43556.97, 12061.81, 9257.25, 40151.83, -31222.53, 0.000, 0.000, 0.000, 0, 0, 0, 0, 0, 0, 0, 0, 0, 0, 1774154356231, 0, 04:39:16.231
21, 19106.59, -29028.29, 19885.34, -31252.54, 7761.55, 10244.22, 43562.57, -46218.21, 0.000, 0.000, 0.000, 0, 0, 0, 0, 0, 0, 0, 0, 0, 0, 1774154356235, 0, 04:39:16.235
22, 32213.93, -20565.59, 13813.18, -18313.33, 2087.08, 6085.57, 39803.82, -55956.07, 0.000, 0.000, 0.000, 0, 0, 0, 0, 0, 0, 0, 0, 0, 0, 1774154356239, 0, 04:39:16.239
23, 39606.86, -8243.49, 7365.95, -8723.35, -3406.97, -4101.75, 32991.85, -56500.75, 0.000, 0.000, 0.000, 0, 0, 0, 0, 0, 0, 0, 0, 0, 0, 1774154356243, 0, 04:39:16.243
24, 40008.26, 9700.31, 2634.57, 1301.28, -4062.89, -16518.22, 19727.46, -52986.92, 0.000, 0.000, 0.000, 0, 0, 0, 0, 0, 0, 0, 0, 0, 0, 1774154356247, 0, 04:39:16.247
25, 33065.63, 25665.23, 18.85, 3687.55, 1106.28, -30432.21, 3342.66, -40752.34, 0.000, 0.000, 0.000, 0, 0, 0, 0, 0, 0, 0, 0, 0, 0, 1774154356251, 0, 04:39:16.251
26, 20430.20, 37587.35, 5382.58, 3094.82, 10088.15, -40833.89, -8156.50, -24552.61, 0.000, 0.000, 0.000, 0, 0, 0, 0, 0, 0, 0, 0, 0, 0, 1774154356255, 0, 04:39:16.255
27, 5130.99, 45616.03, 11835.15, -2713.76, 21109.41, -46879.12, -15387.20, -3886.13, 0.000, 0.000, 0.000, 0, 0, 0, 0, 0, 0, 0, 0, 0, 0, 1774154356259, 0, 04:39:16.259
28, -6988.84, 46543.94, 22496.77, -8846.61, 32418.08, -47702.77, -18730.37, 8481.80, 0.000, 0.000, 0.000, 0, 0, 0, 0, 0, 0, 0, 0, 0, 0, 1774154356263, 0, 04:39:16.263
29, -17001.28, 38982.28, 30271.44, -10737.51, 43044.60, -38162.20, -15576.36, 19185.66, 0.000, 0.000, 0.000, 0, 0, 0, 0, 0, 0, 0, 0, 0, 0, 1774154356267, 0, 04:39:16.267
30, -22322.16, 24615.85, 35617.87, -10906.28, 46520.29, -24354.75, -9482.68, 21858.33, 0.000, 0.000, 0.000, 0, 0, 0, 0, 0, 0, 0, 0, 0, 0, 1774154356271, 0, 04:39:16.271
31, -21760.38, 6563.79, 32940.59, -3695.70, 45241.44, -5928.89, -5365.94, 22232.65, 0.000, 0.000, 0.000, 0, 0, 0, 0, 0, 0, 0, 0, 0, 0, 1774154356275, 0, 04:39:16.275
32, -15420.39, -7827.64, 26335.18, 8696.47, 35417.06, 13695.27, 22.58, 14432.55, 0.000, 0.000, 0.000, 0, 0, 0, 0, 0, 0, 0, 0, 0, 0, 1774154356279, 0, 04:39:16.279
33, -8455.66, -19803.05, 12688.06, 21034.08, 18923.91, 29728.88, 709.16, 8370.92, 0.000, 0.000, 0.000, 0, 0, 0, 0, 0, 0, 0, 0, 0, 0, 1774154356283, 0, 04:39:16.283
34, -3312.40, -26520.77, -3313.56, 34679.98, -52.90, 42236.02, -4849.18, 3166.24, 0.000, 0.000, 0.000, 0, 0, 0, 0, 0, 0, 0, 0, 0, 0, 1774154356287, 0, 04:39:16.287
35, 1410.96, -26709.42, -18578.90, 41229.29, -19332.35, 45613.31, -14305.65, 2054.63, 0.000, 0.000, 0.000, 0, 0, 0, 0, 0, 0, 0, 0, 0, 0, 1774154356291, 0, 04:39:16.291
36, 721.99, -21797.53, -32528.48, 45870.96, -35537.60, 43725.33, -26062.07, 3687.09, 0.000, 0.000, 0.000, 0, 0, 0, 0, 0, 0, 0, 0, 0, 0, 1774154356295, 0, 04:39:16.295
37, -5821.58, -13467.57, -43336.67, 41574.87, -46913.74, 34627.96, -35359.59, 12312.17, 0.000, 0.000, 0.000, 0, 0, 0, 0, 0, 0, 0, 0, 0, 0, 1774154356299, 0, 04:39:16.299
38, -13577.23, -4565.43, -43880.41, 31835.67, -48934.91, 24033.95, -44146.78, 20339.86, 0.000, 0.000, 0.000, 0, 0, 0, 0, 0, 0, 0, 0, 0, 0, 1774154356303, 0, 04:39:16.303
39, -24509.62, 1617.49, -37250.15, 15510.92, -44290.32, 15711.58, -43922.74, 27968.60, 0.000, 0.000, 0.000, 0, 0, 0, 0, 0, 0, 0, 0, 0, 0, 1774154356307, 0, 04:39:16.307
40, -29410.10, 6889.75, -24399.00, -2698.10, -34049.44, 5131.69, -37960.65, 35100.86, 0.000, 0.000, 0.000, 0, 0, 0, 0, 0, 0, 0, 0, 0, 0, 1774154356311, 0, 04:39:16.311
41, -32094.88, 5333.36, -10917.96, -18754.07, -24050.22, 4514.47, -24024.84, 34246.83, 0.000, 0.000, 0.000, 0, 0, 0, 0, 0, 0, 0, 0, 0, 0, 1774154356315, 0, 04:39:16.315
42, -29610.69, 232.63, 4759.19, -32815.44, -12282.18, 6099.36, -7637.45, 28080.29, 0.000, 0.000, 0.000, 0, 0, 0, 0, 0, 0, 0, 0, 0, 0, 1774154356319, 0, 04:39:16.319
43, -18619.70, -8930.01, 19030.30, -37109.77, -4058.19, 9749.99, 12234.77, 17438.42, 0.000, 0.000, 0.000, 0, 0, 0, 0, 0, 0, 0, 0, 0, 0, 1774154356323, 0, 04:39:16.323
44, -5294.13, -14098.80, 23991.08, -37771.03, -1610.89, 14120.88, 29802.95, -1546.88, 0.000, 0.000, 0.000, 0, 0, 0, 0, 0, 0, 0, 0, 0, 0, 1774154356327, 0, 04:39:16.327
45, 14269.25, -16548.26, 26266.89, -30086.02, -1599.72, 19255.84, 44770.83, -15919.05, 0.000, 0.000, 0.000, 0, 0, 0, 0, 0, 0, 0, 0, 0, 0, 1774154356331, 0, 04:39:16.331
46, 32824.75, -16829.02, 22280.81, -16730.33, -5950.79, 17254.29, 50633.44, -32159.63, 0.000, 0.000, 0.000, 0, 0, 0, 0, 0, 0, 0, 0, 0, 0, 1774154356335, 0, 04:39:16.335
47, 45942.95, -9681.73, 14463.67, -5949.76, -11105.21, 11103.15, 49350.43, -41921.84, 0.000, 0.000, 0.000, 0, 0, 0, 0, 0, 0, 0, 0, 0, 0, 1774154356339, 0, 04:39:16.339
48, 54781.35, 2889.97, 5101.43, 6683.90, -15502.61, 317.26, 41960.33, -42193.30, 0.000, 0.000, 0.000, 0, 0, 0, 0, 0, 0, 0, 0, 0, 0, 1774154356343, 0, 04:39:16.343
49, 55449.75, 19430.46, -2100.33, 12848.72, -13453.59, -14612.39, 31316.23, -39453.55, 0.000, 0.000, 0.000, 0, 0, 0, 0, 0, 0, 0, 0, 0, 0, 1774154356347, 0, 04:39:16.347
50, 44889.15, 31466.10, -4172.32, 15054.75, -10538.73, -30738.08, 16757.31, -26841.22, 0.000, 0.000, 0.000, 0, 0, 0, 0, 0, 0, 0, 0, 0, 0, 1774154356351, 0, 04:39:16.351
51, 32020.89, 43734.27, -3154.91, 10635.96, 2362.90, -42548.34, 5386.73, -12267.95, 0.000, 0.000, 0.000, 0, 0, 0, 0, 0, 0, 0, 0, 0, 0, 1774154356355, 0, 04:39:16.355
52, 17308.54, 47858.55, 1541.44, 4282.50, 14990.32, -52694.74, -454.14, 3627.42, 0.000, 0.000, 0.000, 0, 0, 0, 0, 0, 0, 0, 0, 0, 0, 1774154356359, 0, 04:39:16.359
53, 3584.83, 45499.96, 9774.98, -2273.49, 29954.59, -53389.30, -3980.32, 16309.80, 0.000, 0.000, 0.000, 0, 0, 0, 0, 0, 0, 0, 0, 0, 0, 1774154356363, 0, 04:39:16.363
54, -10370.33, 35943.66, 17171.55, -8132.36, 40462.14, -48293.26, -1094.97, 24511.48, 0.000, 0.000, 0.000, 0, 0, 0, 0, 0, 0, 0, 0, 0, 0, 1774154356367, 0, 04:39:16.367
55, -15398.28, 21499.22, 22190.58, -8864.06, 48153.57, -34023.06, 2413.54, 28257.50, 0.000, 0.000, 0.000, 0, 0, 0, 0, 0, 0, 0, 0, 0, 0, 1774154356371, 0, 04:39:16.371
56, -14976.01, 3442.73, 19922.27, -3558.58, 48231.19, -17913.96, 7665.98, 24148.32, 0.000, 0.000, 0.000, 0, 0, 0, 0, 0, 0, 0, 0, 0, 0, 1774154356375, 0, 04:39:16.375
57, -14829.35, -15587.07, 12757.89, 4612.90, 38161.16, 115.52, 10433.49, 15335.82, 0.000, 0.000, 0.000, 0, 0, 0, 0, 0, 0, 0, 0, 0, 0, 1774154356379, 0, 04:39:16.379
58, -9370.66, -30411.82, -1775.49, 15310.79, 24971.59, 16633.47, 9893.31, 5932.40, 0.000, 0.000, 0.000, 0, 0, 0, 0, 0, 0, 0, 0, 0, 0, 1774154356383, 0, 04:39:16.383
59, -4204.93, -36096.64, -17892.42, 26242.92, 5682.95, 28059.99, 3187.93, -1197.67, 0.000, 0.000, 0.000, 0, 0, 0, 0, 0, 0, 0, 0, 0, 0, 1774154356387, 0, 04:39:16.387
60, -2929.08, -40273.56, -34023.56, 35003.30, -10329.94, 31311.24, -7907.81, -3784.93, 0.000, 0.000, 0.000, 0, 0, 0, 0, 0, 0, 0, 0, 0, 0, 1774154356391, 0, 04:39:16.391
61, -4806.71, -36211.70, -47188.20, 34723.59, -25489.80, 28680.61, -22763.62, -2963.76, 0.000, 0.000, 0.000, 0, 0, 0, 0, 0, 0, 0, 0, 0, 0, 1774154356395, 0, 04:39:16.395
62, -12779.91, -29358.03, -55237.96, 29235.74, -33848.82, 20517.99, -35829.46, 1380.76, 0.000, 0.000, 0.000, 0, 0, 0, 0, 0, 0, 0, 0, 0, 0, 1774154356399, 0, 04:39:16.399
63, -25053.79, -17678.67, -52927.45, 16045.98, -33019.46, 10416.72, -43476.08, 6927.19, 0.000, 0.000, 0.000, 0, 0, 0, 0, 0, 0, 0, 0, 0, 0, 1774154356403, 0, 04:39:16.403
64, -34097.67, -10899.29, -45283.40, 628.17, -29408.39, 2089.12, -46108.92, 16482.47, 0.000, 0.000, 0.000, 0, 0, 0, 0, 0, 0, 0, 0, 0, 0, 1774154356407, 0, 04:39:16.407
65, -43751.12, -6154.86, -32185.33, -17434.03, -22685.63, -5315.81, -42227.30, 21686.99, 0.000, 0.000, 0.000, 0, 0, 0, 0, 0, 0, 0, 0, 0, 0, 1774154356411, 0, 04:39:16.411
66, -45787.39, -10437.63, -13781.43, -34295.39, -9336.79, -5723.12, -32242.54, 20442.36, 0.000, 0.000, 0.000, 0, 0, 0, 0, 0, 0, 0, 0, 0, 0, 1774154356415, 0, 04:39:16.415
67, -44419.01, -12553.76, 3513.84, -47159.80, 1557.97, -2355.34, -15533.41, 15739.79, 0.000, 0.000, 0.000, 0, 0, 0, 0, 0, 0, 0, 0, 0, 0, 1774154356419, 0, 04:39:16.419
68, -34425.52, -20169.95, 18558.19, -51725.90, 7811.85, 2180.13, 2667.34, 910.43, 0.000, 0.000, 0.000, 0, 0, 0, 0, 0, 0, 0, 0, 0, 0, 1774154356423, 0, 04:39:16.423
69, -17742.95, -25065.55, 26031.01, -49694.28, 10676.74, 9709.71, 18990.00, -13005.97, 0.000, 0.000, 0.000, 0, 0, 0, 0, 0, 0, 0, 0, 0, 0, 1774154356427, 0, 04:39:16.427
70, 1118.32, -29305.99, 30176.49, -40548.84, 8326.67, 15578.39, 31410.11, -31012.33, 0.000, 0.000, 0.000, 0, 0, 0, 0, 0, 0, 0, 0, 0, 0, 1774154356431, 0, 04:39:16.431
71, 19167.21, -23289.22, 27774.84, -27557.07, 985.81, 16492.93, 37133.86, -43169.79, 0.000, 0.000, 0.000, 0, 0, 0, 0, 0, 0, 0, 0, 0, 0, 1774154356435, 0, 04:39:16.435
72, 31933.96, -14641.99, 22238.28, -12668.29, -5777.94, 13733.91, 34954.41, -52062.81, 0.000, 0.000, 0.000, 0, 0, 0, 0, 0, 0, 0, 0, 0, 0, 1774154356439, 0, 04:39:16.439
73, 42292.02, -1028.93, 13985.24, -1585.89, -10210.54, 6342.31, 27392.14, -52126.86, 0.000, 0.000, 0.000, 0, 0, 0, 0, 0, 0, 0, 0, 0, 0, 1774154356443, 0, 04:39:16.443
74, 41848.52, 16761.45, 6832.19, 5948.70, -11940.05, -8487.79, 15736.36, -46607.19, 0.000, 0.000, 0.000, 0, 0, 0, 0, 0, 0, 0, 0, 0, 0, 1774154356447, 0, 04:39:16.447
75, 36838.08, 32432.32, 6187.10, 11146.15, -9243.36, -20342.76, 2306.03, -34184.97, 0.000, 0.000, 0.000, 0, 0, 0, 0, 0, 0, 0, 0, 0, 0, 1774154356451, 0, 04:39:16.451
76, 24046.87, 45942.71, 9556.09, 9991.60, -993.95, -33856.23, -6819.37, -17039.95, 0.000, 0.000, 0.000, 0, 0, 0, 0, 0, 0, 0, 0, 0, 0, 1774154356455, 0, 04:39:16.455
77, 12029.94, 53134.05, 15838.64, 6420.09, 11294.12, -38678.34, -13417.61, 1120.10, 0.000, 0.000, 0.000, 0, 0, 0, 0, 0, 0, 0, 0, 0, 0, 1774154356459, 0, 04:39:16.459
78, -1902.57, 51287.96, 25231.27, 1373.22, 24520.89, -41331.71, -13942.89, 16317.76, 0.000, 0.000, 0.000, 0, 0, 0, 0, 0, 0, 0, 0, 0, 0, 1774154356463, 0, 04:39:16.463
79, -11611.93, 45473.97, 31362.94, -781.65, 33657.90, -33650.39, -10005.24, 28381.60, 0.000, 0.000, 0.000, 0, 0, 0, 0, 0, 0, 0, 0, 0, 0, 1774154356467, 0, 04:39:16.467
80, -13992.06, 31671.82, 34446.80, -676.97, 39988.64, -20797.09, -3476.58, 32577.61, 0.000, 0.000, 0.000, 0, 0, 0, 0, 0, 0, 0, 0, 0, 0, 1774154356471, 0, 04:39:16.471
81, -13218.35, 12886.93, 32260.79, 5043.38, 35875.73, -3214.05, 3514.99, 28574.91, 0.000, 0.000, 0.000, 0, 0, 0, 0, 0, 0, 0, 0, 0, 0, 1774154356475, 0, 04:39:16.475
82, -8698.20, -2964.10, 24777.31, 13829.10, 27398.69, 16526.01, 6320.62, 24245.16, 0.000, 0.000, 0.000, 0, 0, 0, 0, 0, 0, 0, 0, 0, 0, 1774154356479, 0, 04:39:16.479
83, 191.94, -16837.71, 9133.16, 27699.25, 11774.82, 30920.07, 6268.06, 17024.59, 0.000, 0.000, 0.000, 0, 0, 0, 0, 0, 0, 0, 0, 0, 0, 1774154356483, 0, 04:39:16.483
84, 4703.26, -24076.01, -8144.96, 38663.28, -5790.48, 41071.75, 3904.94, 10196.76, 0.000, 0.000, 0.000, 0, 0, 0, 0, 0, 0, 0, 0, 0, 0, 1774154356487, 0, 04:39:16.487
85, 8033.95, -26398.50, -27068.40, 47397.41, -25274.95, 41766.94, -4493.61, 8494.00, 0.000, 0.000, 0.000, 0, 0, 0, 0, 0, 0, 0, 0, 0, 0, 1774154356491, 0, 04:39:16.491
86, 6496.04, -22638.60, -39990.34, 49236.59, -37702.67, 39501.04, -15535.65, 10942.80, 0.000, 0.000, 0.000, 0, 0, 0, 0, 0, 0, 0, 0, 0, 0, 1774154356495, 0, 04:39:16.495
87, -729.31, -13546.99, -50206.95, 44279.60, -49660.52, 28914.54, -27258.57, 15927.56, 0.000, 0.000, 0.000, 0, 0, 0, 0, 0, 0, 0, 0, 0, 0, 1774154356499, 0, 04:39:16.499
88, -9540.28, -6479.27, -52984.61, 31486.54, -48158.92, 16908.20, -36823.74, 24057.11, 0.000, 0.000, 0.000, 0, 0, 0, 0, 0, 0, 0, 0, 0, 0, 1774154356503, 0, 04:39:16.503
89, -21075.36, 1384.81, -46643.85, 14998.21, -44162.12, 7043.07, -36319.76, 29648.80, 0.000, 0.000, 0.000, 0, 0, 0, 0, 0, 0, 0, 0, 0, 0, 1774154356507, 0, 04:39:16.507
90, -29575.30, 1718.82, -34107.23, -7725.50, -33197.93, -1236.48, -30725.52, 34650.04, 0.000, 0.000, 0.000, 0, 0, 0, 0, 0, 0, 0, 0, 0, 0, 1774154356511, 0, 04:39:16.511
91, -31923.73, -1696.18, -19311.18, -23297.16, -19587.32, -5164.63, -18030.57, 32992.91, 0.000, 0.000, 0.000, 0, 0, 0, 0, 0, 0, 0, 0, 0, 0, 1774154356515, 0, 04:39:16.515
92, -31562.32, -6249.01, -3899.51, -36013.37, -7751.13, -3730.75, -1006.92, 26582.70, 0.000, 0.000, 0.000, 0, 0, 0, 0, 0, 0, 0, 0, 0, 0, 1774154356519, 0, 04:39:16.519
93, -23643.62, -15148.01, 8746.72, -42357.43, -108.67, 626.17, 17193.46, 13458.62, 0.000, 0.000, 0.000, 0, 0, 0, 0, 0, 0, 0, 0, 0, 0, 1774154356523, 0, 04:39:16.523
94, -5618.54, -22696.92, 17246.16, -42947.71, 5428.25, 6475.51, 32871.21, -3197.74, 0.000, 0.000, 0.000, 0, 0, 0, 0, 0, 0, 0, 0, 0, 0, 1774154356527, 0, 04:39:16.527
95, 12448.23, -26520.52, 18285.03, -35273.55, 6189.22, 7911.89, 44683.91, -21134.15, 0.000, 0.000, 0.000, 0, 0, 0, 0, 0, 0, 0, 0, 0, 0, 1774154356531, 0, 04:39:16.531
96, 26517.85, -27035.39, 14545.17, -25589.04, 11.43, 10210.31, 51362.95, -37588.37, 0.000, 0.000, 0.000, 0, 0, 0, 0, 0, 0, 0, 0, 0, 0, 1774154356535, 0, 04:39:16.535
97, 37968.01, -19454.08, 6742.45, -13511.87, -2193.47, 5312.37, 47980.11, -49499.68, 0.000, 0.000, 0.000, 0, 0, 0, 0, 0, 0, 0, 0, 0, 0, 1774154356539, 0, 04:39:16.539
98, 45803.84, -7197.02, 255.62, -2598.68, -7040.88, -6974.76, 41215.42, -53173.49, 0.000, 0.000, 0.000, 0, 0, 0, 0, 0, 0, 0, 0, 0, 0, 1774154356543, 0, 04:39:16.543
99, 44665.75, 7093.29, -5736.91, 3355.94, -7325.04, -21971.52, 25396.67, -47024.22, 0.000, 0.000, 0.000, 0, 0, 0, 0, 0, 0, 0, 0, 0, 0, 1774154356547, 0, 04:39:16.547
100, 36465.77, 23173.50, -7685.98, 4067.61, -2335.62, -36454.63, 13143.60, -35093.28, 0.000, 0.000, 0.000, 0, 0, 0, 0, 0, 0, 0, 0, 0, 0, 1774154356551, 0, 04:39:16.551
101, 22158.80, 36406.66, -4362.59, 1128.37, 8405.08, -48086.65, 454.03, -21301.23, 0.000, 0.000, 0.000, 0, 0, 0, 0, 0, 0, 0, 0, 0, 0, 1774154356555, 0, 04:39:16.555
102, 7864.96, 41255.76, 3006.18, -5407.14, 20171.82, -53125.89, -8416.57, -6651.61, 0.000, 0.000, 0.000, 0, 0, 0, 0, 0, 0, 0, 0, 0, 0, 1774154356559, 0, 04:39:16.559
103, -7042.98, 38245.19, 11946.18, -10285.18, 35280.95, -54902.07, -12364.38, 10136.97, 0.000, 0.000, 0.000, 0, 0, 0, 0, 0, 0, 0, 0, 0, 0, 1774154356563, 0, 04:39:16.563
104, -20003.78, 29164.55, 20209.85, -14761.35, 46515.82, -47754.49, -12015.52, 17539.37, 0.000, 0.000, 0.000, 0, 0, 0, 0, 0, 0, 0, 0, 0, 0, 1774154356567, 0, 04:39:16.567
105, -23922.92, 17533.45, 24580.12, -14820.17, 51457.52, -33474.99, -6360.59, 20132.10, 0.000, 0.000, 0.000, 0, 0, 0, 0, 0, 0, 0, 0, 0, 0, 1774154356571, 0, 04:39:16.571
106, -23034.83, -1177.88, 23966.05, -9639.74, 51499.15, -15542.14, -1568.63, 16271.92, 0.000, 0.000, 0.000, 0, 0, 0, 0, 0, 0, 0, 0, 0, 0, 1774154356575, 0, 04:39:16.575
107, -20656.67, -18163.55, 16996.51, 1125.18, 41572.76, 5726.08, 2533.40, 10806.43, 0.000, 0.000, 0.000, 0, 0, 0, 0, 0, 0, 0, 0, 0, 0, 1774154356579, 0, 04:39:16.579
108, -14990.64, -30566.33, 5307.63, 13687.91, 25919.98, 21646.05, -515.04, 3639.57, 0.000, 0.000, 0.000, 0, 0, 0, 0, 0, 0, 0, 0, 0, 0, 1774154356583, 0, 04:39:16.583
109, -9294.93, -38477.00, -9675.02, 23995.74, 7330.11, 35059.20, -5620.09, -2799.41, 0.000, 0.000, 0.000, 0, 0, 0, 0, 0, 0, 0, 0, 0, 0, 1774154356587, 0, 04:39:16.587
110, -6047.90, -36206.25, -26283.74, 32509.39, -11131.35, 38504.37, -17489.72, -6481.76, 0.000, 0.000, 0.000, 0, 0, 0, 0, 0, 0, 0, 0, 0, 0, 1774154356591, 0, 04:39:16.591
111, -9867.03, -32361.24, -38461.00, 37360.47, -27270.09, 36779.91, -28413.89, -3924.10, 0.000, 0.000, 0.000, 0, 0, 0, 0, 0, 0, 0, 0, 0, 0, 1774154356595, 0, 04:39:16.595
112, -14321.18, -21736.67, -46594.04, 31173.10, -38072.57, 28850.00, -42599.59, 1845.29, 0.000, 0.000, 0.000, 0, 0, 0, 0, 0, 0, 0, 0, 0, 0, 1774154356599, 0, 04:39:16.599
113, -23940.43, -12967.62, -47010.48, 22024.12, -40430.72, 18607.85, -46876.92, 12654.91, 0.000, 0.000, 0.000, 0, 0, 0, 0, 0, 0, 0, 0, 0, 0, 1774154356603, 0, 04:39:16.603
114, -31673.36, -3701.92, -37157.54, 7248.03, -36950.27, 9707.46, -50817.68, 20734.59, 0.000, 0.000, 0.000, 0, 0, 0, 0, 0, 0, 0, 0, 0, 0, 1774154356607, 0, 04:39:16.607
115, -40829.10, -533.68, -24655.55, -10381.55, -29306.97, 3084.17, -47796.65, 25411.26, 0.000, 0.000, 0.000, 0, 0, 0, 0, 0, 0, 0, 0, 0, 0, 1774154356611, 0, 04:39:16.611
116, -41628.80, -385.89, -8088.86, -27273.70, -17708.93, 3276.82, -33628.54, 25690.26, 0.000, 0.000, 0.000, 0, 0, 0, 0, 0, 0, 0, 0, 0, 0, 1774154356615, 0, 04:39:16.615
117, -39878.98, -4766.22, 8501.38, -38782.72, -6832.73, 4776.18, -16320.12, 21632.19, 0.000, 0.000, 0.000, 0, 0, 0, 0, 0, 0, 0, 0, 0, 0, 1774154356619, 0, 04:39:16.619
118, -27365.27, -11082.82, 23452.01, -42175.79, 35.45, 11755.18, 3421.05, 9836.32, 0.000, 0.000, 0.000, 0, 0, 0, 0, 0, 0, 0, 0, 0, 0, 1774154356623, 0, 04:39:16.623
119, -11078.58, -16909.66, 32467.52, -43615.44, 1556.69, 17697.91, 21851.84, -5148.25, 0.000, 0.000, 0.000, 0, 0, 0, 0, 0, 0, 0, 0, 0, 0, 1774154356627, 0, 04:39:16.627
120, 7252.10, -19742.83, 32784.01, -32989.77, -61.83, 22161.55, 35232.63, -21839.67, 0.000, 0.000, 0.000, 0, 0, 0, 0, 0, 0, 0, 0, 0, 0, 1774154356631, 0, 04:39:16.631
121, 27029.22, -15015.05, 29194.88, -18761.71, -7211.36, 22081.48, 42071.72, -35470.44, 0.000, 0.000, 0.000, 0, 0, 0, 0, 0, 0, 0, 0, 0, 0, 1774154356635, 0, 04:39:16.635
122, 42922.74, -8874.48, 22878.21, -5666.95, -13806.34, 18592.53, 41419.68, -42891.39, 0.000, 0.000, 0.000, 0, 0, 0, 0, 0, 0, 0, 0, 0, 0, 1774154356639, 0, 04:39:16.639
123, 50106.85, 5475.94, 11869.27, 7905.98, -18076.52, 7949.97, 36417.02, -44536.84, 0.000, 0.000, 0.000, 0, 0, 0, 0, 0, 0, 0, 0, 0, 0, 1774154356643, 0, 04:39:16.643
124, 49777.07, 21730.10, 8392.21, 14718.32, -17418.71, -5118.56, 25851.76, -35793.33, 0.000, 0.000, 0.000, 0, 0, 0, 0, 0, 0, 0, 0, 0, 0, 1774154356647, 0, 04:39:16.647
125, 44856.39, 37911.40, 5673.96, 17527.83, -14243.90, -21805.32, 12493.94, -24795.74, 0.000, 0.000, 0.000, 0, 0, 0, 0, 0, 0, 0, 0, 0, 0, 1774154356651, 0, 04:39:16.651
126, 32286.07, 49347.98, 2446.63, 14974.47, -5226.15, -33915.89, 2415.63, -9833.98, 0.000, 0.000, 0.000, 0, 0, 0, 0, 0, 0, 0, 0, 0, 0, 1774154356655, 0, 04:39:16.655
127, 18471.94, 55837.55, 9862.18, 9421.04, 9236.00, -41364.06, -4824.32, 6892.91, 0.000, 0.000, 0.000, 0, 0, 0, 0, 0, 0, 0, 0, 0, 0, 1774154356659, 0, 04:39:16.659
128, 5060.48, 53485.60, 16360.60, 3432.38, 21270.57, -43983.52, -5031.84, 22999.81, 0.000, 0.000, 0.000, 0, 0, 0, 0, 0, 0, 0, 0, 0, 0, 1774154356663, 0, 04:39:16.663
129, -6620.37, 42715.77, 23095.47, 160.33, 34813.17, -37456.76, -1624.93, 31588.80, 0.000, 0.000, 0.000, 0, 0, 0, 0, 0, 0, 0, 0, 0, 0, 1774154356667, 0, 04:39:16.667
130, -11766.39, 28715.20, 25891.90, -790.97, 38596.25, -25132.44, 4024.63, 36140.58, 0.000, 0.000, 0.000, 0, 0, 0, 0, 0, 0, 0, 0, 0, 0, 1774154356671, 0, 04:39:16.671
131, -9918.64, 9352.79, 24482.44, 5473.08, 37448.51, -7452.98, 10861.98, 32364.10, 0.000, 0.000, 0.000, 0, 0, 0, 0, 0, 0, 0, 0, 0, 0, 1774154356675, 0, 04:39:16.675
132, -6792.40, -9175.34, 14973.91, 14104.78, 30265.09, 8444.55, 14721.62, 23366.81, 0.000, 0.000, 0.000, 0, 0, 0, 0, 0, 0, 0, 0, 0, 0, 1774154356679, 0, 04:39:16.679
133, -2825.83, -21956.40, 109.88, 25607.62, 16320.25, 23350.88, 13125.63, 15649.28, 0.000, 0.000, 0.000, 0, 0, 0, 0, 0, 0, 0, 0, 0, 0, 1774154356683, 0, 04:39:16.683
134, 4978.72, -30379.03, -16720.16, 34168.63, -1387.07, 32019.07, 9591.76, 8572.79, 0.000, 0.000, 0.000, 0, 0, 0, 0, 0, 0, 0, 0, 0, 0, 1774154356687, 0, 04:39:16.687
135, 6136.25, -32648.81, -33810.88, 40627.38, -15600.68, 33979.80, -1613.19, 5544.29, 0.000, 0.000, 0.000, 0, 0, 0, 0, 0, 0, 0, 0, 0, 0, 1774154356691, 0, 04:39:16.691
136, 2262.02, -29284.37, -49854.17, 43121.08, -31501.51, 29650.57, -12405.35, 4628.20, 0.000, 0.000, 0.000, 0, 0, 0, 0, 0, 0, 0, 0, 0, 0, 1774154356695, 0, 04:39:16.695
137, -5895.92, -24572.17, -58814.20, 39522.98, -39383.72, 22930.35, -25596.18, 10140.92, 0.000, 0.000, 0.000, 0, 0, 0, 0, 0, 0, 0, 0, 0, 0, 1774154356699, 0, 04:39:16.699
138, -14853.25, -16299.43, -56498.35, 25129.69, -41112.24, 9694.16, -32937.30, 15661.75, 0.000, 0.000, 0.000, 0, 0, 0, 0, 0, 0, 0, 0, 0, 0, 1774154356703, 0, 04:39:16.703
139, -26885.53, -7416.46, -51938.62, 5647.08, -35392.13, 623.69, -36530.07, 23515.59, 0.000, 0.000, 0.000, 0, 0, 0, 0, 0, 0, 0, 0, 0, 0, 1774154356707, 0, 04:39:16.707
140, -34505.84, -7880.22, -38328.53, -13282.99, -23228.18, -7127.01, -33213.61, 27609.63, 0.000, 0.000, 0.000, 0, 0, 0, 0, 0, 0, 0, 0, 0, 0, 1774154356711, 0, 04:39:16.711
141, -40778.88, -8656.41, -21823.35, -31241.95, -12692.10, -9494.32, -23174.90, 27245.75, 0.000, 0.000, 0.000, 0, 0, 0, 0, 0, 0, 0, 0, 0, 0, 1774154356715, 0, 04:39:16.715
142, -38780.82, -15731.14, -3997.64, -46581.68, -176.15, -8808.68, -7397.27, 18703.53, 0.000, 0.000, 0.000, 0, 0, 0, 0, 0, 0, 0, 0, 0, 0, 1774154356719, 0, 04:39:16.719
143, -30398.46, -22731.29, 11196.47, -50788.78, 9246.56, -3625.69, 11362.43, 4590.38, 0.000, 0.000, 0.000, 0, 0, 0, 0, 0, 0, 0, 0, 0, 0, 1774154356723, 0, 04:39:16.723
144, -15105.33, -30126.36, 19137.45, -51222.45, 14426.36, 4016.23, 27175.16, -10360.04, 0.000, 0.000, 0.000, 0, 0, 0, 0, 0, 0, 0, 0, 0, 0, 1774154356727, 0, 04:39:16.727
145, 2113.84, -32292.06, 20280.65, -43628.99, 11785.63, 8545.18, 38057.82, -29659.43, 0.000, 0.000, 0.000, 0, 0, 0, 0, 0, 0, 0, 0, 0, 0, 1774154356731, 0, 04:39:16.731
146, 19683.99, -30418.07, 18023.31, -31650.48, 7807.74, 9010.36, 44119.30, -44109.45, 0.000, 0.000, 0.000, 0, 0, 0, 0, 0, 0, 0, 0, 0, 0, 1774154356735, 0, 04:39:16.735
147, 31461.41, -22574.64, 13058.29, -17433.13, 1558.63, 7924.46, 40904.11, -55091.47, 0.000, 0.000, 0.000, 0, 0, 0, 0, 0, 0, 0, 0, 0, 0, 1774154356739, 0, 04:39:16.739
148, 38661.63, -9495.99, 6522.06, -7522.75, -1811.48, -3468.44, 32746.42, -56769.85, 0.000, 0.000, 0.000, 0, 0, 0, 0, 0, 0, 0, 0, 0, 0, 1774154356743, 0, 04:39:16.743
149, 38349.44, 8296.20, 420.51, -702.66, -5159.11, -16246.08, 18231.11, -51976.24, 0.000, 0.000, 0.000, 0, 0, 0, 0, 0, 0, 0, 0, 0, 0, 1774154356747, 0, 04:39:16.747
150, 32213.99, 23537.51, 1617.54, 3790.43, 976.96, -29163.43, 6018.87, -38729.78, 0.000, 0.000, 0.000, 0, 0, 0, 0, 0, 0, 0, 0, 0, 0, 1774154356751, 0, 04:39:16.751
151, 20496.87, 38157.66, 3414.29, -115.38, 8978.97, -39256.96, -6395.92, -21896.44, 0.000, 0.000, 0.000, 0, 0, 0, 0, 0, 0, 0, 0, 0, 0, 1774154356755, 0, 04:39:16.755
152, 4239.82, 47214.55, 12991.47, -3224.58, 21941.17, -48597.91, -13510.79, -5736.89, 0.000, 0.000, 0.000, 0, 0, 0, 0, 0, 0, 0, 0, 0, 0, 1774154356759, 0, 04:39:16.759
153, -9269.90, 45701.58, 22483.42, -6886.97, 32876.62, -44952.85, -16172.92, 9178.27, 0.000, 0.000, 0.000, 0, 0, 0, 0, 0, 0, 0, 0, 0, 0, 1774154356763, 0, 04:39:16.763
154, -18443.15, 37372.50, 29076.97, -10139.77, 43504.71, -38534.67, -14762.50, 20136.82, 0.000, 0.000, 0.000, 0, 0, 0, 0, 0, 0, 0, 0, 0, 0, 1774154356767, 0, 04:39:16.767
155, -23417.94, 23191.96, 34568.96, -8235.94, 47928.19, -22807.23, -9402.81, 23286.58, 0.000, 0.000, 0.000, 0, 0, 0, 0, 0, 0, 0, 0, 0, 0, 1774154356771, 0, 04:39:16.771
156, -21319.45, 5237.29, 32391.26, -2121.05, 44572.34, -4988.83, -1686.09, 21248.36, 0.000, 0.000, 0.000, 0, 0, 0, 0, 0, 0, 0, 0, 0, 0, 1774154356775, 0, 04:39:16.775
157, -18810.10, -10041.83, 26907.04, 10272.27, 34395.11, 16643.25, 457.73, 17548.14, 0.000, 0.000, 0.000, 0, 0, 0, 0, 0, 0, 0, 0, 0, 0, 1774154356779, 0, 04:39:16.779
158, -10224.94, -19990.94, 13089.71, 20797.87, 19031.99, 31518.16, 1336.14, 10426.73, 0.000, 0.000, 0.000, 0, 0, 0, 0, 0, 0, 0, 0, 0, 0, 1774154356783, 0, 04:39:16.783
159, -3553.53, -28373.37, -3852.91, 34333.04, 279.79, 41820.66, -4492.95, 5030.70, 0.000, 0.000, 0.000, 0, 0, 0, 0, 0, 0, 0, 0, 0, 0, 1774154356787, 0, 04:39:16.787
160, -1350.65, -28484.39, -20088.33, 42740.90, -19884.55, 46287.40, -14786.76, 3699.58, 0.000, 0.000, 0.000, 0, 0, 0, 0, 0, 0, 0, 0, 0, 0, 1774154356791, 0, 04:39:16.791
161, -1086.54, -22681.13, -34349.69, 47143.18, -35523.00, 43926.54, -25415.89, 6390.50, 0.000, 0.000, 0.000, 0, 0, 0, 0, 0, 0, 0, 0, 0, 0, 1774154356795, 0, 04:39:16.795
162, -6515.22, -14706.45, -42662.64, 42206.29, -46934.94, 36063.47, -34548.58, 12295.93, 0.000, 0.000, 0.000, 0, 0, 0, 0, 0, 0, 0, 0, 0, 0, 1774154356799, 0, 04:39:16.799
163, -14551.95, -5426.96, -42640.47, 32825.02, -48407.27, 25714.30, -41261.86, 20419.24, 0.000, 0.000, 0.000, 0, 0, 0, 0, 0, 0, 0, 0, 0, 0, 1774154356803, 0, 04:39:16.803
164, -22829.51, 2977.70, -37823.41, 14819.23, -43069.41, 15045.65, -42499.07, 29567.58, 0.000, 0.000, 0.000, 0, 0, 0, 0, 0, 0, 0, 0, 0, 0, 1774154356807, 0, 04:39:16.807
165, -31333.25, 5589.95, -23285.03, -1606.23, -34088.73, 6380.63, -35651.57, 36334.22, 0.000, 0.000, 0.000, 0, 0, 0, 0, 0, 0, 0, 0, 0, 0, 1774154356811, 0, 04:39:16.811
166, -34582.11, 4352.05, -10382.44, -19120.34, -23108.41, 4163.68, -23303.86, 36352.03, 0.000, 0.000, 0.000, 0, 0, 0, 0, 0, 0, 0, 0, 0, 0, 1774154356815, 0, 04:39:16.815
167, -29869.11, -1060.38, 7796.44, -32001.16, -11724.88, 6303.50, -6394.78, 29796.56, 0.000, 0.000, 0.000, 0, 0, 0, 0, 0, 0, 0, 0, 0, 0, 1774154356819, 0, 04:39:16.819
168, -18396.20, -7355.83, 17958.35, -37238.98, -4684.30, 9659.30, 14652.58, 17680.60, 0.000, 0.000, 0.000, 0, 0, 0, 0, 0, 0, 0, 0, 0, 0, 1774154356823, 0, 04:39:16.823
169, -4361.35, -14883.69, 26011.06, -36003.13, 917.20, 16223.93, 32545.72, 2918.91, 0.000, 0.000, 0.000, 0, 0, 0, 0, 0, 0, 0, 0, 0, 0, 1774154356827, 0, 04:39:16.827
170, 14206.41, -18476.21, 26583.97, -28152.88, 182.46, 19293.01, 45422.26, -14959.03, 0.000, 0.000, 0.000, 0, 0, 0, 0, 0, 0, 0, 0, 0, 0, 1774154356831, 0, 04:39:16.831
171, 33346.63, -16283.40, 22241.15, -16857.85, -5843.72, 18657.01, 53008.61, -29027.36, 0.000, 0.000, 0.000, 0, 0, 0, 0, 0, 0, 0, 0, 0, 0, 1774154356835, 0, 04:39:16.835
172, 46514.02, -9612.59, 15259.25, -4476.05, -8971.72, 14132.24, 51807.59, -38637.85, 0.000, 0.000, 0.000, 0, 0, 0, 0, 0, 0, 0, 0, 0, 0, 1774154356839, 0, 04:39:16.839
173, 54595.36, 2563.57, 7052.90, 6700.02, -15390.21, 529.66, 43772.80, -42273.98, 0.000, 0.000, 0.000, 0, 0, 0, 0, 0, 0, 0, 0, 0, 0, 1774154356843, 0, 04:39:16.843
174, 53602.88, 18296.63, -173.95, 12141.65, -15471.53, -13259.76, 32397.94, -36193.08, 0.000, 0.000, 0.000, 0, 0, 0, 0, 0, 0, 0, 0, 0, 0, 1774154356847, 0, 04:39:16.847
175, 46517.51, 33247.75, -4666.50, 15764.82, -9413.75, -27330.47, 20725.01, -25567.29, 0.000, 0.000, 0.000, 0, 0, 0, 0, 0, 0, 0, 0, 0, 0, 1774154356851, 0, 04:39:16.851
176, 31872.32, 43768.41, -2588.26, 10561.36, 1553.49, -40382.01, 9287.64, -10247.83, 0.000, 0.000, 0.000, 0, 0, 0, 0, 0, 0, 0, 0, 0, 0, 1774154356855, 0, 04:39:16.855
177, 17166.86, 49026.59, 2127.48, 5049.92, 17649.25, -48425.74, 754.02, 3429.15, 0.000, 0.000, 0.000, 0, 0, 0, 0, 0, 0, 0, 0, 0, 0, 1774154356859, 0, 04:39:16.859
178, 2107.84, 45736.53, 9622.89, -1095.39, 29871.73, -51701.25, -1912.85, 17776.86, 0.000, 0.000, 0.000, 0, 0, 0, 0, 0, 0, 0, 0, 0, 0, 1774154356863, 0, 04:39:16.863
179, -10186.77, 35722.98, 16628.01, -5706.76, 41376.70, -44959.38, -1288.74, 26106.81, 0.000, 0.000, 0.000, 0, 0, 0, 0, 0, 0, 0, 0, 0, 0, 1774154356867, 0, 04:39:16.867
180, -16765.58, 21533.65, 21144.28, -8654.90, 48053.01, -31629.59, 6190.94, 28801.41, 0.000, 0.000, 0.000, 0, 0, 0, 0, 0, 0, 0, 0, 0, 0, 1774154356871, 0, 04:39:16.871
181, -15696.61, 2842.11, 20350.00, -2860.80, 49456.51, -14031.79, 10563.86, 25632.85, 0.000, 0.000, 0.000, 0, 0, 0, 0, 0, 0, 0, 0, 0, 0, 1774154356875, 0, 04:39:16.875
182, -13354.22, -14937.74, 10953.66, 6285.96, 41518.11, 3212.61, 12979.01, 18148.15, 0.000, 0.000, 0.000, 0, 0, 0, 0, 0, 0, 0, 0, 0, 0, 1774154356879, 0, 04:39:16.879
183, -8762.54, -29140.45, -282.31, 17003.42, 26252.39, 19366.93, 8726.07, 9372.42, 0.000, 0.000, 0.000, 0, 0, 0, 0, 0, 0, 0, 0, 0, 0, 1774154356883, 0, 04:39:16.883
184, -3486.02, -37509.01, -15052.11, 28832.75, 7523.64, 29395.14, 4166.67, 1012.60, 0.000, 0.000, 0.000, 0, 0, 0, 0, 0, 0, 0, 0, 0, 0, 1774154356887, 0, 04:39:16.887
185, -996.69, -38493.15, -31737.30, 34254.15, -9517.65, 33282.87, -6907.90, -1711.18, 0.000, 0.000, 0.000, 0, 0, 0, 0, 0, 0, 0, 0, 0, 0, 1774154356891, 0, 04:39:16.891
186, -6999.45, -34045.91, -46438.92, 34732.41, -21565.32, 29361.35, -19447.41, -49.58, 0.000, 0.000, 0.000, 0, 0, 0, 0, 0, 0, 0, 0, 0, 0, 1774154356895, 0, 04:39:16.895
187, -13729.67, -26104.81, -54395.66, 31831.75, -31319.14, 22317.57, -33162.93, 2969.01, 0.000, 0.000, 0.000, 0, 0, 0, 0, 0, 0, 0, 0, 0, 0, 1774154356899, 0, 04:39:16.899
188, -23673.05, -18060.29, -52406.34, 18586.97, -33764.14, 12263.82, -42122.44, 10182.62, 0.000, 0.000, 0.000, 0, 0, 0, 0, 0, 0, 0, 0, 0, 0, 1774154356903, 0, 04:39:16.903
189, -32584.91, -9546.29, -46824.94, 670.73, -27463.61, 2393.80, -44516.18, 17659.13, 0.000, 0.000, 0.000, 0, 0, 0, 0, 0, 0, 0, 0, 0, 0, 1774154356907, 0, 04:39:16.907
190, -42264.46, -7050.58, -29616.61, -16555.71, -17842.82, -4190.53, -41641.34, 23085.01, 0.000, 0.000, 0.000, 0, 0, 0, 0, 0, 0, 0, 0, 0, 0, 1774154356911, 0, 04:39:16.911
191, -45455.48, -7578.09, -13167.39, -32309.76, -7967.85, -4712.28, -30437.89, 22323.17, 0.000, 0.000, 0.000, 0, 0, 0, 0, 0, 0, 0, 0, 0, 0, 1774154356915, 0, 04:39:16.915
192, -44043.04, -12462.99, 6341.71, -46687.31, 2767.12, -1523.11, -13652.51, 14994.87, 0.000, 0.000, 0.000, 0, 0, 0, 0, 0, 0, 0, 0, 0, 0, 1774154356919, 0, 04:39:16.919
193, -33974.86, -18841.27, 17859.69, -48789.54, 9562.54, 5199.84, 5570.25, 3337.12, 0.000, 0.000, 0.000, 0, 0, 0, 0, 0, 0, 0, 0, 0, 0, 1774154356923, 0, 04:39:16.923
194, -16900.93, -25203.88, 29522.61, -49314.12, 12271.79, 13029.78, 21979.87, -10140.76, 0.000, 0.000, 0.000, 0, 0, 0, 0, 0, 0, 0, 0, 0, 0, 1774154356927, 0, 04:39:16.927
195, 1470.11, -25972.48, 31759.03, -39650.38, 8813.98, 18476.04, 34624.49, -26392.68, 0.000, 0.000, 0.000, 0, 0, 0, 0, 0, 0, 0, 0, 0, 0, 1774154356931, 0, 04:39:16.931
196, 20275.78, -20765.94, 29120.00, -27655.90, 2933.92, 19841.43, 39567.00, -40078.30, 0.000, 0.000, 0.000, 0, 0, 0, 0, 0, 0, 0, 0, 0, 0, 1774154356935, 0, 04:39:16.935
197, 34320.23, -14308.72, 22110.86, -12133.83, -4276.86, 15655.37, 39454.75, -49767.06, 0.000, 0.000, 0.000, 0, 0, 0, 0, 0, 0, 0, 0, 0, 0, 1774154356939, 0, 04:39:16.939
198, 43177.65, 468.32, 16732.68, 364.25, -7263.29, 8312.66, 28978.61, -51928.85, 0.000, 0.000, 0.000, 0, 0, 0, 0, 0, 0, 0, 0, 0, 0, 1774154356943, 0, 04:39:16.943
199, 44059.63, 17245.31, 11339.48, 7761.90, -11224.38, -5283.43, 20674.69, -44756.67, 0.000, 0.000, 0.000, 0, 0, 0, 0, 0, 0, 0, 0, 0, 0, 1774154356947, 0, 04:39:16.947
