%OpenBCI Raw EXG Data
%Number of channels = 8
%Sample Rate = 250 Hz
%Board = OpenBCI_GUI$BoardCytonSerial
Sample Index, EXG Channel 0, EXG Channel 1, EXG Channel 2, EXG Channel 3, EXG Channel 4, EXG Channel 5, EXG Channel 6, EXG Channel 7, Accel Channel 0, Accel Channel 1, Accel Channel 2, Not Used, Digital Channel 0 (D11), Digital Channel 1 (D12), Digital Channel 2 (D13), Digital Channel 3 (D17), Not Used, Digital Channel 4 (D18), Analog Channel 0, Analog Channel 1, Analog Channel 2, Timestamp, Marker Channel, Timestamp (Formatted)
0, -1.21, -0.61, -2.42, 1.33, -2.05, 1.21, -2.64, 0.73, 0.000, 0.000, 0.000, 0, 0, 0, 0, 0, 0, 0, 0, 0, 0, 1774154178665, 0, 04:36:18.665
1, -1.72, -0.17, -1.91, 0.38, -1.83, 0.68, -2.62, 1.26, 0.000, 0.000, 0.000, 0, 0, 0, 0, 0, 0, 0, 0, 0, 0, 1774154178669, 0, 04:36:18.669
2, -2.08, 0.09, -1.20, -0.50, -1.43, 0.32, -2.37, 1.50, 0.000, 0.000, 0.000, 0, 0, 0, 0, 0, 0, 0, 0, 0, 0, 1774154178673, 0, 04:36:18.673
3, -2.22, -0.03, -0.32, -1.43, -0.69, 0.20, -1.70, 1.49, 0.000, 0.000, 0.000, 0, 0, 0, 0, 0, 0, 0, 0, 0, 0, 1774154178677, 0, 04:36:18.677
4, -1.99, -0.23, 0.66, -1.99, -0.33, 0.38, -0.65, 1.29, 0.000, 0.000, 0.000, 0, 0, 0, 0, 0, 0, 0, 0, 0, 0, 1774154178681, 0, 04:36:18.681
5, -1.39, -0.51, 1.25, -2.23, 0.07, 0.72, 0.32, 0.67, 0.000, 0.000, 0.000, 0, 0, 0, 0, 0, 0, 0, 0, 0, 0, 1774154178685, 0, 04:36:18.685
6, -0.41, -0.83, 1.81, -2.12, 0.26, 0.98, 1.41, -0.22, 0.000, 0.000, 0.000, 0, 0, 0, 0, 0, 0, 0, 0, 0, 0, 1774154178689, 0, 04:36:18.689
7, 0.51, -0.92, 1.98, -1.53, 0.12, 1.30, 1.99, -1.05, 0.000, 0.000, 0.000, 0, 0, 0, 0, 0, 0, 0, 0, 0, 0, 1774154178693, 0, 04:36:18.693
8, 1.52, -0.85, 1.77, -0.87, -0.20, 1.28, 2.38, -1.78, 0.000, 0.000, 0.000, 0, 0, 0, 0, 0, 0, 0, 0, 0, 0, 1774154178697, 0, 04:36:18.697
9, 2.32, -0.31, 1.32, -0.12, -0.55, 1.08, 2.45, -2.13, 0.000, 0.000, 0.000, 0, 0, 0, 0, 0, 0, 0, 0, 0, 0, 1774154178701, 0, 04:36:18.701
10, 2.85, 0.46, 0.83, 0.52, -0.94, 0.62, 2.03, -2.23, 0.000, 0.000, 0.000, 0, 0, 0, 0, 0, 0, 0, 0, 0, 0, 1774154178705, 0, 04:36:18.705
11, 2.92, 1.30, 0.44, 1.00, -0.81, -0.25, 1.48, -1.94, 0.000, 0.000, 0.000, 0, 0, 0, 0, 0, 0, 0, 0, 0, 0, 1774154178709, 0, 04:36:18.709
12, 2.52, 2.14, 0.29, 0.99, -0.66, -0.99, 0.80, -1.22, 0.000, 0.000, 0.000, 0, 0, 0, 0, 0, 0, 0, 0, 0, 0, 1774154178713, 0, 04:36:18.713
13, 1.85, 2.79, 0.40, 1.01, -0.09, -1.60, 0.25, -0.45, 0.000, 0.000, 0.000, 0, 0, 0, 0, 0, 0, 0, 0, 0, 0, 1774154178717, 0, 04:36:18.717
14, 1.08, 3.07, 0.62, 0.61, 0.45, -2.12, -0.10, 0.54, 0.000, 0.000, 0.000, 0, 0, 0, 0, 0, 0, 0, 0, 0, 0, 1774154178721, 0, 04:36:18.721
15, 0.42, 3.00, 1.07, 0.31, 1.30, -2.26, -0.14, 1.36, 0.000, 0.000, 0.000, 0, 0, 0, 0, 0, 0, 0, 0, 0, 0, 1774154178725, 0, 04:36:18.725
16, -0.13, 2.55, 1.48, 0.14, 1.87, -1.89, 0.05, 1.85, 0.000, 0.000, 0.000, 0, 0, 0, 0, 0, 0, 0, 0, 0, 0, 1774154178729, 0, 04:36:18.729
17, -0.42, 1.66, 1.53, 0.17, 2.26, -1.32, 0.43, 1.98, 0.000, 0.000, 0.000, 0, 0, 0, 0, 0, 0, 0, 0, 0, 0, 1774154178733, 0, 04:36:18.733
18, -0.48, 0.63, 1.34, 0.32, 2.21, -0.44, 0.68, 1.85, 0.000, 0.000, 0.000, 0, 0, 0, 0, 0, 0, 0, 0, 0, 0, 1774154178737, 0, 04:36:18.737
19, -0.22, -0.32, 0.87, 0.83, 1.78, 0.56, 0.88, 1.49, 0.000, 0.000, 0.000, 0, 0, 0, 0, 0, 0, 0, 0, 0, 0, 1774154178741, 0, 04:36:18.741
20, 0.09, -1.06, 0.21, 1.46, 0.97, 1.37, 0.85, 1.01, 0.000, 0.000, 0.000, 0, 0, 0, 0, 0, 0, 0, 0, 0, 0, 1774154178745, 0, 04:36:18.745
21, 0.35, -1.56, -0.78, 2.01, 0.08, 1.90, 0.65, 0.65, 0.000, 0.000, 0.000, 0, 0, 0, 0, 0, 0, 0, 0, 0, 0, 1774154178749, 0, 04:36:18.749
22, 0.47, -1.64, -1.69, 2.44, -0.85, 1.97, 0.08, 0.41, 0.000, 0.000, 0.000, 0, 0, 0, 0, 0, 0, 0, 0, 0, 0, 1774154178753, 0, 04:36:18.753
23, 0.28, -1.46, -2.54, 2.61, -1.57, 1.79, -0.72, 0.44, 0.000, 0.000, 0.000, 0, 0, 0, 0, 0, 0, 0, 0, 0, 0, 1774154178757, 0, 04:36:18.757
24, -0.11, -1.07, -2.93, 2.14, -1.98, 1.31, -1.37, 0.73, 0.000, 0.000, 0.000, 0, 0, 0, 0, 0, 0, 0, 0, 0, 0, 1774154178761, 0, 04:36:18.761
25, -0.72, -0.63, -3.03, 1.38, -2.07, 0.69, -1.79, 1.06, 0.000, 0.000, 0.000, 0, 0, 0, 0, 0, 0, 0, 0, 0, 0, 1774154178765, 0, 04:36:18.765
26, -1.34, -0.33, -2.68, 0.39, -1.82, 0.12, -1.90, 1.46, 0.000, 0.000, 0.000, 0, 0, 0, 0, 0, 0, 0, 0, 0, 0, 1774154178769, 0, 04:36:18.769
27, -1.83, -0.30, -1.96, -0.63, -1.17, -0.32, -1.69, 1.55, 0.000, 0.000, 0.000, 0, 0, 0, 0, 0, 0, 0, 0, 0, 0, 1774154178773, 0, 04:36:18.773
28, -2.17, -0.42, -1.09, -1.64, -0.36, -0.42, -1.08, 1.43, 0.000, 0.000, 0.000, 0, 0, 0, 0, 0, 0, 0, 0, 0, 0, 1774154178777, 0, 04:36:18.777
29, -2.01, -0.70, -0.02, -2.30, 0.25, -0.32, -0.26, 1.10, 0.000, 0.000, 0.000, 0, 0, 0, 0, 0, 0, 0, 0, 0, 0, 1774154178781, 0, 04:36:18.781
30, -1.53, -1.13, 0.64, -2.66, 0.49, -0.06, 0.77, 0.38, 0.000, 0.000, 0.000, 0, 0, 0, 0, 0, 0, 0, 0, 0, 0, 1774154178785, 0, 04:36:18.785
31, -0.76, -1.53, 1.16, -2.65, 0.84, 0.35, 1.61, -0.45, 0.000, 0.000, 0.000, 0, 0, 0, 0, 0, 0, 0, 0, 0, 0, 1774154178789, 0, 04:36:18.789
32, 0.19, -1.67, 1.26, -2.13, 0.82, 0.64, 2.20, -1.54, 0.000, 0.000, 0.000, 0, 0, 0, 0, 0, 0, 0, 0, 0, 0, 1774154178793, 0, 04:36:18.793
33, 1.19, -1.55, 1.11, -1.62, 0.51, 0.69, 2.51, -2.32, 0.000, 0.000, 0.000, 0, 0, 0, 0, 0, 0, 0, 0, 0, 0, 1774154178797, 0, 04:36:18.797
34, 1.80, -1.11, 0.84, -0.88, 0.18, 0.40, 2.24, -2.82, 0.000, 0.000, 0.000, 0, 0, 0, 0, 0, 0, 0, 0, 0, 0, 1774154178801, 0, 04:36:18.801
35, 2.27, -0.35, 0.54, -0.22, -0.05, -0.03, 1.83, -2.96, 0.000, 0.000, 0.000, 0, 0, 0, 0, 0, 0, 0, 0, 0, 0, 1774154178805, 0, 04:36:18.805
36, 2.13, 0.61, 0.20, 0.21, -0.06, -0.76, 1.14, -2.67, 0.000, 0.000, 0.000, 0, 0, 0, 0, 0, 0, 0, 0, 0, 0, 1774154178809, 0, 04:36:18.809
37, 1.81, 1.46, 0.13, 0.37, 0.08, -1.44, 0.41, -1.99, 0.000, 0.000, 0.000, 0, 0, 0, 0, 0, 0, 0, 0, 0, 0, 1774154178813, 0, 04:36:18.813
38, 1.17, 2.28, 0.37, 0.23, 0.67, -2.11, -0.34, -1.07, 0.000, 0.000, 0.000, 0, 0, 0, 0, 0, 0, 0, 0, 0, 0, 1774154178817, 0, 04:36:18.817
39, 0.40, 2.55, 0.78, 0.01, 1.25, -2.35, -0.69, -0.12, 0.000, 0.000, 0.000, 0, 0, 0, 0, 0, 0, 0, 0, 0, 0, 1774154178821, 0, 04:36:18.821
40, -0.32, 2.51, 1.33, -0.34, 1.88, -2.33, -0.80, 0.62, 0.000, 0.000, 0.000, 0, 0, 0, 0, 0, 0, 0, 0, 0, 0, 1774154178825, 0, 04:36:18.825
41, -0.85, 2.11, 1.72, -0.41, 2.51, -1.87, -0.67, 1.12, 0.000, 0.000, 0.000, 0, 0, 0, 0, 0, 0, 0, 0, 0, 0, 1774154178829, 0, 04:36:18.829
42, -1.14, 1.39, 2.00, -0.33, 2.63, -1.08, -0.34, 1.46, 0.000, 0.000, 0.000, 0, 0, 0, 0, 0, 0, 0, 0, 0, 0, 1774154178833, 0, 04:36:18.833
43, -1.09, 0.52, 1.96, 0.05, 2.54, -0.14, -0.04, 1.26, 0.000, 0.000, 0.000, 0, 0, 0, 0, 0, 0, 0, 0, 0, 0, 1774154178837, 0, 04:36:18.837
44, -0.74, -0.26, 1.49, 0.48, 2.00, 0.89, 0.13, 1.10, 0.000, 0.000, 0.000, 0, 0, 0, 0, 0, 0, 0, 0, 0, 0, 1774154178841, 0, 04:36:18.841
45, -0.40, -1.06, 0.80, 1.22, 1.27, 1.88, 0.17, 0.72, 0.000, 0.000, 0.000, 0, 0, 0, 0, 0, 0, 0, 0, 0, 0, 1774154178845, 0, 04:36:18.845
46, -0.09, -1.33, -0.09, 1.99, 0.09, 2.39, -0.14, 0.44, 0.000, 0.000, 0.000, 0, 0, 0, 0, 0, 0, 0, 0, 0, 0, 1774154178849, 0, 04:36:18.849
47, 0.11, -1.37, -1.01, 2.32, -1.03, 2.55, -0.61, 0.29, 0.000, 0.000, 0.000, 0, 0, 0, 0, 0, 0, 0, 0, 0, 0, 1774154178853, 0, 04:36:18.853
48, 0.07, -1.17, -1.67, 2.64, -1.82, 2.51, -1.18, 0.30, 0.000, 0.000, 0.000, 0, 0, 0, 0, 0, 0, 0, 0, 0, 0, 1774154178857, 0, 04:36:18.857
49, -0.16, -0.58, -2.15, 2.44, -2.31, 2.04, -1.79, 0.70, 0.000, 0.000, 0.000, 0, 0, 0, 0, 0, 0, 0, 0, 0, 0, 1774154178861, 0, 04:36:18.861
50, -0.65, -0.05, -2.22, 1.77, -2.45, 1.54, -2.15, 1.25, 0.000, 0.000, 0.000, 0, 0, 0, 0, 0, 0, 0, 0, 0, 0, 1774154178865, 0, 04:36:18.865
51, -1.13, 0.24, -2.01, 0.92, -2.16, 0.92, -2.18, 1.67, 0.000, 0.000, 0.000, 0, 0, 0, 0, 0, 0, 0, 0, 0, 0, 1774154178869, 0, 04:36:18.869
52, -1.58, 0.46, -1.12, -0.09, -1.70, 0.50, -1.86, 1.99, 0.000, 0.000, 0.000, 0, 0, 0, 0, 0, 0, 0, 0, 0, 0, 1774154178873, 0, 04:36:18.873
53, -1.69, 0.31, -0.42, -0.97, -1.13, 0.41, -1.13, 2.06, 0.000, 0.000, 0.000, 0, 0, 0, 0, 0, 0, 0, 0, 0, 0, 1774154178877, 0, 04:36:18.877
54, -1.46, 0.04, 0.56, -1.64, -0.58, 0.33, -0.11, 1.70, 0.000, 0.000, 0.000, 0, 0, 0, 0, 0, 0, 0, 0, 0, 0, 1774154178881, 0, 04:36:18.881
55, -0.94, -0.25, 1.06, -1.96, -0.04, 0.62, 0.88, 1.00, 0.000, 0.000, 0.000, 0, 0, 0, 0, 0, 0, 0, 0, 0, 0, 1774154178885, 0, 04:36:18.885
56, -0.05, -0.70, 1.48, -1.88, 0.05, 0.89, 1.81, 0.24, 0.000, 0.000, 0.000, 0, 0, 0, 0, 0, 0, 0, 0, 0, 0, 1774154178889, 0, 04:36:18.889
57, 0.90, -0.92, 1.46, -1.44, -0.02, 1.02, 2.58, -0.70, 0.000, 0.000, 0.000, 0, 0, 0, 0, 0, 0, 0, 0, 0, 0, 1774154178893, 0, 04:36:18.893
58, 1.88, -0.78, 1.34, -0.81, -0.25, 1.15, 2.94, -1.55, 0.000, 0.000, 0.000, 0, 0, 0, 0, 0, 0, 0, 0, 0, 0, 1774154178897, 0, 04:36:18.897
59, 2.62, -0.42, 0.84, -0.02, -0.57, 0.77, 2.90, -2.03, 0.000, 0.000, 0.000, 0, 0, 0, 0, 0, 0, 0, 0, 0, 0, 1774154178901, 0, 04:36:18.901
60, 2.98, 0.24, 0.37, 0.46, -0.73, 0.24, 2.54, -2.20, 0.000, 0.000, 0.000, 0, 0, 0, 0, 0, 0, 0, 0, 0, 0, 1774154178905, 0, 04:36:18.905
61, 3.03, 1.11, -0.02, 0.85, -0.69, -0.58, 1.75, -1.87, 0.000, 0.000, 0.000, 0, 0, 0, 0, 0, 0, 0, 0, 0, 0, 1774154178909, 0, 04:36:18.909
62, 2.57, 1.82, -0.09, 0.88, -0.35, -1.42, 1.19, -1.32, 0.000, 0.000, 0.000, 0, 0, 0, 0, 0, 0, 0, 0, 0, 0, 1774154178913, 0, 04:36:18.913
63, 1.89, 2.44, -0.01, 0.70, 0.17, -2.21, 0.59, -0.45, 0.000, 0.000, 0.000, 0, 0, 0, 0, 0, 0, 0, 0, 0, 0, 1774154178917, 0, 04:36:18.917
64, 1.07, 2.76, 0.34, 0.30, 0.87, -2.68, 0.13, 0.25, 0.000, 0.000, 0.000, 0, 0, 0, 0, 0, 0, 0, 0, 0, 0, 1774154178921, 0, 04:36:18.921
65, 0.26, 2.66, 0.64, -0.07, 1.64, -2.71, -0.01, 1.08, 0.000, 0.000, 0.000, 0, 0, 0, 0, 0, 0, 0, 0, 0, 0, 1774154178925, 0, 04:36:18.925
66, -0.35, 2.14, 1.06, -0.31, 2.37, -2.33, 0.05, 1.48, 0.000, 0.000, 0.000, 0, 0, 0, 0, 0, 0, 0, 0, 0, 0, 1774154178929, 0, 04:36:18.929
67, -0.72, 1.20, 1.20, -0.28, 2.72, -1.67, 0.31, 1.58, 0.000, 0.000, 0.000, 0, 0, 0, 0, 0, 0, 0, 0, 0, 0, 1774154178933, 0, 04:36:18.933
68, -0.79, 0.28, 1.17, -0.01, 2.67, -0.78, 0.61, 1.48, 0.000, 0.000, 0.000, 0, 0, 0, 0, 0, 0, 0, 0, 0, 0, 1774154178937, 0, 04:36:18.937
69, -0.59, -0.76, 0.76, 0.32, 2.25, 0.17, 0.75, 1.06, 0.000, 0.000, 0.000, 0, 0, 0, 0, 0, 0, 0, 0, 0, 0, 1774154178941, 0, 04:36:18.941
70, -0.39, -1.39, 0.11, 0.98, 1.54, 1.08, 0.67, 0.44, 0.000, 0.000, 0.000, 0, 0, 0, 0, 0, 0, 0, 0, 0, 0, 1774154178945, 0, 04:36:18.945
71, -0.14, -1.98, -0.74, 1.51, 0.64, 1.60, 0.31, 0.16, 0.000, 0.000, 0.000, 0, 0, 0, 0, 0, 0, 0, 0, 0, 0, 1774154178949, 0, 04:36:18.949
72, -0.06, -1.94, -1.62, 1.96, -0.42, 1.83, -0.27, -0.06, 0.000, 0.000, 0.000, 0, 0, 0, 0, 0, 0, 0, 0, 0, 0, 1774154178953, 0, 04:36:18.953
73, -0.21, -1.81, -2.42, 2.11, -1.17, 1.68, -0.99, -0.09, 0.000, 0.000, 0.000, 0, 0, 0, 0, 0, 0, 0, 0, 0, 0, 1774154178957, 0, 04:36:18.957
74, -0.54, -1.26, -2.73, 1.74, -1.61, 1.26, -1.77, 0.17, 0.000, 0.000, 0.000, 0, 0, 0, 0, 0, 0, 0, 0, 0, 0, 1774154178961, 0, 04:36:18.961
75, -1.17, -0.84, -2.76, 1.11, -1.79, 0.76, -2.18, 0.54, 0.000, 0.000, 0.000, 0, 0, 0, 0, 0, 0, 0, 0, 0, 0, 1774154178965, 0, 04:36:18.965
76, -1.74, -0.53, -2.34, 0.27, -1.50, 0.27, -2.30, 1.00, 0.000, 0.000, 0.000, 0, 0, 0, 0, 0, 0, 0, 0, 0, 0, 1774154178969, 0, 04:36:18.969
77, -2.13, -0.32, -1.60, -0.79, -0.99, -0.00, -2.17, 1.26, 0.000, 0.000, 0.000, 0, 0, 0, 0, 0, 0, 0, 0, 0, 0, 1774154178973, 0, 04:36:18.973
78, -2.40, -0.31, -0.64, -1.76, -0.43, -0.15, -1.50, 1.29, 0.000, 0.000, 0.000, 0, 0, 0, 0, 0, 0, 0, 0, 0, 0, 1774154178977, 0, 04:36:18.977
79, -2.19, -0.54, 0.42, -2.38, 0.22, 0.06, -0.75, 0.93, 0.000, 0.000, 0.000, 0, 0, 0, 0, 0, 0, 0, 0, 0, 0, 1774154178981, 0, 04:36:18.981
80, -1.72, -0.94, 1.14, -2.71, 0.61, 0.28, 0.27, 0.22, 0.000, 0.000, 0.000, 0, 0, 0, 0, 0, 0, 0, 0, 0, 0, 1774154178985, 0, 04:36:18.985
81, -0.84, -1.23, 1.64, -2.53, 0.76, 0.65, 1.15, -0.56, 0.000, 0.000, 0.000, 0, 0, 0, 0, 0, 0, 0, 0, 0, 0, 1774154178989, 0, 04:36:18.989
82, 0.13, -1.31, 1.78, -2.05, 0.55, 1.03, 1.91, -1.48, 0.000, 0.000, 0.000, 0, 0, 0, 0, 0, 0, 0, 0, 0, 0, 1774154178993, 0, 04:36:18.993
83, 1.15, -1.16, 1.78, -1.43, 0.28, 1.17, 2.24, -2.27, 0.000, 0.000, 0.000, 0, 0, 0, 0, 0, 0, 0, 0, 0, 0, 1774154178997, 0, 04:36:18.997
84, 2.00, -0.73, 1.40, -0.58, -0.03, 0.96, 2.08, -2.76, 0.000, 0.000, 0.000, 0, 0, 0, 0, 0, 0, 0, 0, 0, 0, 1774154179001, 0, 04:36:19.001
85, 2.33, 0.07, 0.91, 0.08, -0.29, 0.50, 1.73, -2.71, 0.000, 0.000, 0.000, 0, 0, 0, 0, 0, 0, 0, 0, 0, 0, 1774154179005, 0, 04:36:19.005
86, 2.48, 1.05, 0.64, 0.58, -0.42, -0.36, 1.12, -2.36, 0.000, 0.000, 0.000, 0, 0, 0, 0, 0, 0, 0, 0, 0, 0, 1774154179009, 0, 04:36:19.009
87, 2.14, 2.01, 0.54, 0.78, -0.36, -0.94, 0.36, -1.65, 0.000, 0.000, 0.000, 0, 0, 0, 0, 0, 0, 0, 0, 0, 0, 1774154179013, 0, 04:36:19.013
88, 1.49, 2.74, 0.69, 0.69, 0.17, -1.63, -0.21, -0.78, 0.000, 0.000, 0.000, 0, 0, 0, 0, 0, 0, 0, 0, 0, 0, 1774154179017, 0, 04:36:19.017
89, 0.72, 3.09, 0.98, 0.42, 0.76, -2.10, -0.53, 0.23, 0.000, 0.000, 0.000, 0, 0, 0, 0, 0, 0, 0, 0, 0, 0, 1774154179021, 0, 04:36:19.021
90, 0.10, 3.03, 1.47, 0.22, 1.46, -2.00, -0.67, 0.99, 0.000, 0.000, 0.000, 0, 0, 0, 0, 0, 0, 0, 0, 0, 0, 1774154179025, 0, 04:36:19.025
91, -0.43, 2.61, 1.90, -0.01, 1.95, -1.64, -0.44, 1.57, 0.000, 0.000, 0.000, 0, 0, 0, 0, 0, 0, 0, 0, 0, 0, 1774154179029, 0, 04:36:19.029
92, -0.62, 1.78, 1.96, 0.04, 2.16, -0.90, 0.01, 1.84, 0.000, 0.000, 0.000, 0, 0, 0, 0, 0, 0, 0, 0, 0, 0, 1774154179033, 0, 04:36:19.033
93, -0.56, 0.89, 1.85, 0.28, 2.12, 0.07, 0.25, 1.77, 0.000, 0.000, 0.000, 0, 0, 0, 0, 0, 0, 0, 0, 0, 0, 1774154179037, 0, 04:36:19.037
94, -0.20, -0.05, 1.43, 0.97, 1.67, 1.01, 0.57, 1.37, 0.000, 0.000, 0.000, 0, 0, 0, 0, 0, 0, 0, 0, 0, 0, 1774154179041, 0, 04:36:19.041
95, 0.09, -0.79, 0.67, 1.61, 0.83, 1.73, 0.58, 1.01, 0.000, 0.000, 0.000, 0, 0, 0, 0, 0, 0, 0, 0, 0, 0, 1774154179045, 0, 04:36:19.045
96, 0.39, -1.13, -0.17, 2.30, -0.16, 2.32, 0.31, 0.71, 0.000, 0.000, 0.000, 0, 0, 0, 0, 0, 0, 0, 0, 0, 0, 1774154179049, 0, 04:36:19.049
97, 0.60, -1.22, -1.19, 2.62, -1.16, 2.39, -0.15, 0.62, 0.000, 0.000, 0.000, 0, 0, 0, 0, 0, 0, 0, 0, 0, 0, 1774154179053, 0, 04:36:19.053
98, 0.51, -0.98, -2.01, 2.79, -1.95, 2.28, -0.68, 0.62, 0.000, 0.000, 0.000, 0, 0, 0, 0, 0, 0, 0, 0, 0, 0, 1774154179057, 0, 04:36:19.057
99, 0.22, -0.59, -2.57, 2.55, -2.41, 1.83, -1.32, 0.96, 0.000, 0.000, 0.000, 0, 0, 0, 0, 0, 0, 0, 0, 0, 0, 1774154179061, 0, 04:36:19.061
100, -0.33, -0.17, -2.67, 1.82, -2.53, 1.07, -1.71, 1.38, 0.000, 0.000, 0.000, 0, 0, 0, 0, 0, 0, 0, 0, 0, 0, 1774154179065, 0, 04:36:19.065
101, -0.93, 0.17, -2.41, 0.95, -2.23, 0.49, -1.76, 1.75, 0.000, 0.000, 0.000, 0, 0, 0, 0, 0, 0, 0, 0, 0, 0, 1774154179069, 0, 04:36:19.069
102, -1.34, 0.25, -1.66, -0.15, -1.58, 0.03, -1.56, 2.01, 0.000, 0.000, 0.000, 0, 0, 0, 0, 0, 0, 0, 0, 0, 0, 1774154179073, 0, 04:36:19.073
103, -1.68, 0.14, -0.84, -1.11, -0.96, -0.15, -0.94, 1.88, 0.000, 0.000, 0.000, 0, 0, 0, 0, 0, 0, 0, 0, 0, 0, 1774154179077, 0, 04:36:19.077
104, -1.52, -0.26, 0.04, -1.81, -0.30, -0.07, 0.10, 1.52, 0.000, 0.000, 0.000, 0, 0, 0, 0, 0, 0, 0, 0, 0, 0, 1774154179081, 0, 04:36:19.081
105, -1.04, -0.66, 0.66, -2.17, 0.19, 0.12, 1.03, 0.90, 0.000, 0.000, 0.000, 0, 0, 0, 0, 0, 0, 0, 0, 0, 0, 1774154179085, 0, 04:36:19.085
106, -0.23, -1.06, 1.07, -2.19, 0.41, 0.45, 1.98, -0.02, 0.000, 0.000, 0.000, 0, 0, 0, 0, 0, 0, 0, 0, 0, 0, 1774154179089, 0, 04:36:19.089
107, 0.65, -1.35, 1.17, -1.86, 0.38, 0.68, 2.56, -1.04, 0.000, 0.000, 0.000, 0, 0, 0, 0, 0, 0, 0, 0, 0, 0, 1774154179093, 0, 04:36:19.093
108, 1.65, -1.26, 1.01, -1.25, 0.20, 0.67, 2.89, -1.89, 0.000, 0.000, 0.000, 0, 0, 0, 0, 0, 0, 0, 0, 0, 0, 1774154179097, 0, 04:36:19.097
109, 2.30, -0.91, 0.52, -0.54, -0.09, 0.28, 2.70, -2.60, 0.000, 0.000, 0.000, 0, 0, 0, 0, 0, 0, 0, 0, 0, 0, 1774154179101, 0, 04:36:19.101
110, 2.58, -0.24, 0.21, -0.06, -0.26, -0.16, 2.28, -2.74, 0.000, 0.000, 0.000, 0, 0, 0, 0, 0, 0, 0, 0, 0, 0, 1774154179105, 0, 04:36:19.105
111, 2.54, 0.55, -0.14, 0.33, -0.27, -0.90, 1.54, -2.46, 0.000, 0.000, 0.000, 0, 0, 0, 0, 0, 0, 0, 0, 0, 0, 1774154179109, 0, 04:36:19.109
112, 2.16, 1.49, -0.29, 0.39, 0.07, -1.69, 0.76, -1.74, 0.000, 0.000, 0.000, 0, 0, 0, 0, 0, 0, 0, 0, 0, 0, 1774154179113, 0, 04:36:19.113
113, 1.45, 2.11, -0.19, 0.23, 0.63, -2.45, 0.12, -1.06, 0.000, 0.000, 0.000, 0, 0, 0, 0, 0, 0, 0, 0, 0, 0, 1774154179117, 0, 04:36:19.117
114, 0.66, 2.40, 0.28, -0.14, 1.31, -2.87, -0.43, -0.15, 0.000, 0.000, 0.000, 0, 0, 0, 0, 0, 0, 0, 0, 0, 0, 1774154179121, 0, 04:36:19.121
115, -0.10, 2.38, 0.84, -0.52, 1.97, -2.88, -0.56, 0.57, 0.000, 0.000, 0.000, 0, 0, 0, 0, 0, 0, 0, 0, 0, 0, 1774154179125, 0, 04:36:19.125
116, -0.82, 1.80, 1.30, -0.62, 2.69, -2.47, -0.40, 1.04, 0.000, 0.000, 0.000, 0, 0, 0, 0, 0, 0, 0, 0, 0, 0, 1774154179129, 0, 04:36:19.129
117, -1.21, 1.17, 1.51, -0.59, 2.97, -1.65, -0.19, 1.17, 0.000, 0.000, 0.000, 0, 0, 0, 0, 0, 0, 0, 0, 0, 0, 1774154179133, 0, 04:36:19.133
118, -1.28, 0.09, 1.57, -0.43, 2.83, -0.61, -0.00, 0.97, 0.000, 0.000, 0.000, 0, 0, 0, 0, 0, 0, 0, 0, 0, 0, 1774154179137, 0, 04:36:19.137
119, -0.95, -0.78, 1.12, 0.20, 2.42, 0.45, 0.22, 0.55, 0.000, 0.000, 0.000, 0, 0, 0, 0, 0, 0, 0, 0, 0, 0, 1774154179141, 0, 04:36:19.141
120, -0.67, -1.50, 0.51, 0.89, 1.49, 1.27, 0.07, 0.32, 0.000, 0.000, 0.000, 0, 0, 0, 0, 0, 0, 0, 0, 0, 0, 1774154179145, 0, 04:36:19.145
121, -0.35, -1.83, -0.40, 1.52, 0.59, 1.91, -0.19, -0.12, 0.000, 0.000, 0.000, 0, 0, 0, 0, 0, 0, 0, 0, 0, 0, 1774154179149, 0, 04:36:19.149
122, -0.22, -1.83, -1.26, 1.93, -0.49, 2.16, -0.79, -0.32, 0.000, 0.000, 0.000, 0, 0, 0, 0, 0, 0, 0, 0, 0, 0, 1774154179153, 0, 04:36:19.153
123, -0.30, -1.58, -1.97, 2.06, -1.46, 2.03, -1.47, -0.11, 0.000, 0.000, 0.000, 0, 0, 0, 0, 0, 0, 0, 0, 0, 0, 1774154179157, 0, 04:36:19.157
124, -0.57, -1.00, -2.42, 1.89, -1.89, 1.71, -2.10, 0.23, 0.000, 0.000, 0.000, 0, 0, 0, 0, 0, 0, 0, 0, 0, 0, 1774154179161, 0, 04:36:19.161
125, -1.11, -0.54, -2.25, 1.31, -2.09, 1.18, -2.41, 0.72, 0.000, 0.000, 0.000, 0, 0, 0, 0, 0, 0, 0, 0, 0, 0, 1774154179165, 0, 04:36:19.165
126, -1.65, -0.10, -1.93, 0.45, -1.90, 0.68, -2.68, 1.20, 0.000, 0.000, 0.000, 0, 0, 0, 0, 0, 0, 0, 0, 0, 0, 1774154179169, 0, 04:36:19.169
127, -2.09, 0.07, -1.21, -0.52, -1.44, 0.35, -2.35, 1.42, 0.000, 0.000, 0.000, 0, 0, 0, 0, 0, 0, 0, 0, 0, 0, 1774154179173, 0, 04:36:19.173
128, -2.25, 0.11, -0.31, -1.43, -0.83, 0.26, -1.66, 1.47, 0.000, 0.000, 0.000, 0, 0, 0, 0, 0, 0, 0, 0, 0, 0, 1774154179177, 0, 04:36:19.177
129, -1.97, -0.15, 0.64, -1.98, -0.31, 0.40, -0.80, 1.21, 0.000, 0.000, 0.000, 0, 0, 0, 0, 0, 0, 0, 0, 0, 0, 1774154179181, 0, 04:36:19.181
130, -1.35, -0.51, 1.46, -2.24, -0.00, 0.65, 0.22, 0.66, 0.000, 0.000, 0.000, 0, 0, 0, 0, 0, 0, 0, 0, 0, 0, 1774154179185, 0, 04:36:19.185
131, -0.38, -0.82, 1.92, -2.11, 0.26, 1.09, 1.25, -0.30, 0.000, 0.000, 0.000, 0, 0, 0, 0, 0, 0, 0, 0, 0, 0, 1774154179189, 0, 04:36:19.189
132, 0.59, -0.78, 1.84, -1.63, 0.06, 1.31, 2.04, -1.06, 0.000, 0.000, 0.000, 0, 0, 0, 0, 0, 0, 0, 0, 0, 0, 1774154179193, 0, 04:36:19.193
133, 1.65, -0.77, 1.70, -0.85, -0.27, 1.32, 2.37, -1.76, 0.000, 0.000, 0.000, 0, 0, 0, 0, 0, 0, 0, 0, 0, 0, 1774154179197, 0, 04:36:19.197
134, 2.38, -0.37, 1.26, -0.20, -0.65, 1.09, 2.35, -2.23, 0.000, 0.000, 0.000, 0, 0, 0, 0, 0, 0, 0, 0, 0, 0, 1774154179201, 0, 04:36:19.201
135, 2.81, 0.40, 0.90, 0.54, -0.83, 0.54, 2.04, -2.31, 0.000, 0.000, 0.000, 0, 0, 0, 0, 0, 0, 0, 0, 0, 0, 1774154179205, 0, 04:36:19.205
136, 2.87, 1.30, 0.50, 0.87, -0.98, -0.19, 1.36, -1.95, 0.000, 0.000, 0.000, 0, 0, 0, 0, 0, 0, 0, 0, 0, 0, 1774154179209, 0, 04:36:19.209
137, 2.53, 2.19, 0.28, 1.10, -0.68, -1.11, 0.74, -1.45, 0.000, 0.000, 0.000, 0, 0, 0, 0, 0, 0, 0, 0, 0, 0, 1774154179213, 0, 04:36:19.213
138, 2.03, 2.84, 0.38, 0.99, -0.20, -1.72, 0.12, -0.36, 0.000, 0.000, 0.000, 0, 0, 0, 0, 0, 0, 0, 0, 0, 0, 1774154179217, 0, 04:36:19.217
139, 1.11, 3.16, 0.63, 0.62, 0.49, -2.23, -0.13, 0.50, 0.000, 0.000, 0.000, 0, 0, 0, 0, 0, 0, 0, 0, 0, 0, 1774154179221, 0, 04:36:19.221
140, 0.46, 2.99, 1.11, 0.39, 1.20, -2.34, -0.21, 1.32, 0.000, 0.000, 0.000, 0, 0, 0, 0, 0, 0, 0, 0, 0, 0, 1774154179225, 0, 04:36:19.225
141, -0.18, 2.52, 1.40, 0.12, 1.83, -2.01, -0.01, 1.70, 0.000, 0.000, 0.000, 0, 0, 0, 0, 0, 0, 0, 0, 0, 0, 1774154179229, 0, 04:36:19.229
142, -0.38, 1.63, 1.56, 0.05, 2.19, -1.36, 0.22, 1.83, 0.000, 0.000, 0.000, 0, 0, 0, 0, 0, 0, 0, 0, 0, 0, 1774154179233, 0, 04:36:19.233
143, -0.41, 0.65, 1.27, 0.33, 2.16, -0.51, 0.60, 1.85, 0.000, 0.000, 0.000, 0, 0, 0, 0, 0, 0, 0, 0, 0, 0, 1774154179237, 0, 04:36:19.237
144, -0.22, -0.34, 0.92, 0.88, 1.68, 0.53, 0.76, 1.34, 0.000, 0.000, 0.000, 0, 0, 0, 0, 0, 0, 0, 0, 0, 0, 1774154179241, 0, 04:36:19.241
145, 0.10, -1.13, 0.25, 1.46, 0.96, 1.38, 0.79, 0.90, 0.000, 0.000, 0.000, 0, 0, 0, 0, 0, 0, 0, 0, 0, 0, 1774154179245, 0, 04:36:19.245
146, 0.33, -1.49, -0.73, 1.93, 0.08, 1.71, 0.57, 0.54, 0.000, 0.000, 0.000, 0, 0, 0, 0, 0, 0, 0, 0, 0, 0, 1774154179249, 0, 04:36:19.249
147, 0.47, -1.64, -1.84, 2.35, -0.97, 1.88, -0.06, 0.33, 0.000, 0.000, 0.000, 0, 0, 0, 0, 0, 0, 0, 0, 0, 0, 1774154179253, 0, 04:36:19.253
148, 0.26, -1.45, -2.55, 2.42, -1.65, 1.74, -0.78, 0.36, 0.000, 0.000, 0.000, 0, 0, 0, 0, 0, 0, 0, 0, 0, 0, 1774154179257, 0, 04:36:19.257
149, -0.19, -1.12, -3.06, 2.05, -2.13, 1.22, -1.40, 0.56, 0.000, 0.000, 0.000, 0, 0, 0, 0, 0, 0, 0, 0, 0, 0, 1774154179261, 0, 04:36:19.261
150, -0.78, -0.67, -2.97, 1.49, -2.18, 0.65, -1.92, 0.87, 0.000, 0.000, 0.000, 0, 0, 0, 0, 0, 0, 0, 0, 0, 0, 1774154179265, 0, 04:36:19.265
151, -1.34, -0.47, -2.67, 0.42, -1.81, 0.03, -2.06, 1.31, 0.000, 0.000, 0.000, 0, 0, 0, 0, 0, 0, 0, 0, 0, 0, 1774154179269, 0, 04:36:19.269
152, -1.78, -0.23, -2.01, -0.67, -1.27, -0.39, -1.75, 1.51, 0.000, 0.000, 0.000, 0, 0, 0, 0, 0, 0, 0, 0, 0, 0, 1774154179273, 0, 04:36:19.273
153, -2.10, -0.39, -1.07, -1.59, -0.61, -0.53, -1.27, 1.31, 0.000, 0.000, 0.000, 0, 0, 0, 0, 0, 0, 0, 0, 0, 0, 1774154179277, 0, 04:36:19.277
154, -2.00, -0.69, -0.28, -2.40, 0.16, -0.53, -0.34, 1.06, 0.000, 0.000, 0.000, 0, 0, 0, 0, 0, 0, 0, 0, 0, 0, 1774154179281, 0, 04:36:19.281
155, -1.51, -1.12, 0.55, -2.69, 0.60, -0.18, 0.60, 0.16, 0.000, 0.000, 0.000, 0, 0, 0, 0, 0, 0, 0, 0, 0, 0, 1774154179285, 0, 04:36:19.285
156, -0.68, -1.55, 1.09, -2.77, 0.67, 0.27, 1.44, -0.59, 0.000, 0.000, 0.000, 0, 0, 0, 0, 0, 0, 0, 0, 0, 0, 1774154179289, 0, 04:36:19.289
157, 0.20, -1.75, 1.28, -2.31, 0.63, 0.56, 2.10, -1.63, 0.000, 0.000, 0.000, 0, 0, 0, 0, 0, 0, 0, 0, 0, 0, 1774154179293, 0, 04:36:19.293
158, 1.09, -1.59, 1.02, -1.60, 0.47, 0.63, 2.30, -2.40, 0.000, 0.000, 0.000, 0, 0, 0, 0, 0, 0, 0, 0, 0, 0, 1774154179297, 0, 04:36:19.297
159, 1.88, -1.08, 0.78, -0.87, 0.11, 0.37, 2.24, -2.94, 0.000, 0.000, 0.000, 0, 0, 0, 0, 0, 0, 0, 0, 0, 0, 1774154179301, 0, 04:36:19.301
160, 2.23, -0.35, 0.48, -0.36, -0.05, -0.24, 1.69, -3.09, 0.000, 0.000, 0.000, 0, 0, 0, 0, 0, 0, 0, 0, 0, 0, 1774154179305, 0, 04:36:19.305
161, 2.26, 0.45, 0.10, 0.05, -0.14, -0.85, 1.01, -2.77, 0.000, 0.000, 0.000, 0, 0, 0, 0, 0, 0, 0, 0, 0, 0, 1774154179309, 0, 04:36:19.309
162, 1.80, 1.36, 0.12, 0.26, 0.06, -1.49, 0.24, -2.14, 0.000, 0.000, 0.000, 0, 0, 0, 0, 0, 0, 0, 0, 0, 0, 1774154179313, 0, 04:36:19.313
163, 1.07, 2.08, 0.30, 0.10, 0.47, -2.09, -0.35, -1.22, 0.000, 0.000, 0.000, 0, 0, 0, 0, 0, 0, 0, 0, 0, 0, 1774154179317, 0, 04:36:19.317
164, 0.28, 2.48, 0.77, -0.13, 1.18, -2.45, -0.77, -0.22, 0.000, 0.000, 0.000, 0, 0, 0, 0, 0, 0, 0, 0, 0, 0, 1774154179321, 0, 04:36:19.321
165, -0.31, 2.41, 1.17, -0.35, 1.77, -2.49, -1.06, 0.42, 0.000, 0.000, 0.000, 0, 0, 0, 0, 0, 0, 0, 0, 0, 0, 1774154179325, 0, 04:36:19.325
166, -0.84, 1.98, 1.62, -0.57, 2.42, -2.10, -0.80, 0.88, 0.000, 0.000, 0.000, 0, 0, 0, 0, 0, 0, 0, 0, 0, 0, 1774154179329, 0, 04:36:19.329
167, -1.18, 1.28, 1.93, -0.56, 2.62, -1.25, -0.61, 1.23, 0.000, 0.000, 0.000, 0, 0, 0, 0, 0, 0, 0, 0, 0, 0, 1774154179333, 0, 04:36:19.333
168, -1.13, 0.44, 1.79, -0.18, 2.42, -0.24, -0.22, 1.15, 0.000, 0.000, 0.000, 0, 0, 0, 0, 0, 0, 0, 0, 0, 0, 1774154179337, 0, 04:36:19.337
169, -0.76, -0.47, 1.45, 0.47, 1.96, 0.87, 0.00, 0.86, 0.000, 0.000, 0.000, 0, 0, 0, 0, 0, 0, 0, 0, 0, 0, 1774154179341, 0, 04:36:19.341
170, -0.49, -1.09, 0.75, 1.08, 1.16, 1.69, -0.01, 0.47, 0.000, 0.000, 0.000, 0, 0, 0, 0, 0, 0, 0, 0, 0, 0, 1774154179345, 0, 04:36:19.345
171, -0.13, -1.39, -0.13, 1.84, -0.00, 2.27, -0.24, 0.27, 0.000, 0.000, 0.000, 0, 0, 0, 0, 0, 0, 0, 0, 0, 0, 1774154179349, 0, 04:36:19.349
172, 0.14, -1.51, -1.00, 2.28, -1.01, 2.49, -0.71, 0.05, 0.000, 0.000, 0.000, 0, 0, 0, 0, 0, 0, 0, 0, 0, 0, 1774154179353, 0, 04:36:19.353
173, 0.04, -1.18, -1.77, 2.59, -1.93, 2.36, -1.39, 0.28, 0.000, 0.000, 0.000, 0, 0, 0, 0, 0, 0, 0, 0, 0, 0, 1774154179357, 0, 04:36:19.357
174, -0.24, -0.65, -2.29, 2.39, -2.45, 1.94, -1.97, 0.64, 0.000, 0.000, 0.000, 0, 0, 0, 0, 0, 0, 0, 0, 0, 0, 1774154179361, 0, 04:36:19.361
175, -0.72, -0.21, -2.31, 1.65, -2.68, 1.30, -2.31, 1.11, 0.000, 0.000, 0.000, 0, 0, 0, 0, 0, 0, 0, 0, 0, 0, 1774154179365, 0, 04:36:19.365
176, -1.21, 0.18, -1.91, 0.84, -2.39, 0.73, -2.43, 1.58, 0.000, 0.000, 0.000, 0, 0, 0, 0, 0, 0, 0, 0, 0, 0, 1774154179369, 0, 04:36:19.369
177, -1.56, 0.44, -1.36, -0.20, -1.89, 0.44, -2.05, 1.91, 0.000, 0.000, 0.000, 0, 0, 0, 0, 0, 0, 0, 0, 0, 0, 1774154179373, 0, 04:36:19.373
178, -1.76, 0.29, -0.47, -1.08, -1.18, 0.13, -1.27, 1.89, 0.000, 0.000, 0.000, 0, 0, 0, 0, 0, 0, 0, 0, 0, 0, 1774154179377, 0, 04:36:19.377
179, -1.53, 0.06, 0.35, -1.64, -0.75, 0.35, -0.44, 1.54, 0.000, 0.000, 0.000, 0, 0, 0, 0, 0, 0, 0, 0, 0, 0, 1774154179381, 0, 04:36:19.381
180, -1.09, -0.37, 1.03, -2.06, -0.25, 0.42, 0.69, 0.94, 0.000, 0.000, 0.000, 0, 0, 0, 0, 0, 0, 0, 0, 0, 0, 1774154179385, 0, 04:36:19.385
181, -0.15, -0.78, 1.33, -1.98, 0.01, 0.77, 1.66, 0.08, 0.000, 0.000, 0.000, 0, 0, 0, 0, 0, 0, 0, 0, 0, 0, 1774154179389, 0, 04:36:19.389
182, 0.81, -0.94, 1.53, -1.59, -0.13, 1.04, 2.51, -0.84, 0.000, 0.000, 0.000, 0, 0, 0, 0, 0, 0, 0, 0, 0, 0, 1774154179393, 0, 04:36:19.393
183, 1.75, -0.87, 1.18, -0.86, -0.36, 0.97, 2.74, -1.77, 0.000, 0.000, 0.000, 0, 0, 0, 0, 0, 0, 0, 0, 0, 0, 1774154179397, 0, 04:36:19.397
184, 2.51, -0.45, 0.83, -0.38, -0.68, 0.59, 2.70, -2.22, 0.000, 0.000, 0.000, 0, 0, 0, 0, 0, 0, 0, 0, 0, 0, 1774154179401, 0, 04:36:19.401
185, 2.93, 0.14, 0.28, 0.33, -0.88, 0.07, 2.27, -2.41, 0.000, 0.000, 0.000, 0, 0, 0, 0, 0, 0, 0, 0, 0, 0, 1774154179405, 0, 04:36:19.405
186, 2.97, 0.98, -0.10, 0.71, -0.90, -0.74, 1.68, -2.06, 0.000, 0.000, 0.000, 0, 0, 0, 0, 0, 0, 0, 0, 0, 0, 1774154179409, 0, 04:36:19.409
187, 2.44, 1.77, -0.18, 0.75, -0.55, -1.61, 0.98, -1.45, 0.000, 0.000, 0.000, 0, 0, 0, 0, 0, 0, 0, 0, 0, 0, 1774154179413, 0, 04:36:19.413
188, 1.79, 2.41, -0.11, 0.64, -0.00, -2.36, 0.31, -0.68, 0.000, 0.000, 0.000, 0, 0, 0, 0, 0, 0, 0, 0, 0, 0, 1774154179417, 0, 04:36:19.417
189, 0.93, 2.60, 0.15, 0.31, 0.80, -2.79, -0.01, 0.16, 0.000, 0.000, 0.000, 0, 0, 0, 0, 0, 0, 0, 0, 0, 0, 1774154179421, 0, 04:36:19.421
190, 0.13, 2.55, 0.58, -0.19, 1.53, -2.89, -0.18, 0.93, 0.000, 0.000, 0.000, 0, 0, 0, 0, 0, 0, 0, 0, 0, 0, 1774154179425, 0, 04:36:19.425
191, -0.43, 1.99, 0.92, -0.29, 2.19, -2.40, -0.05, 1.34, 0.000, 0.000, 0.000, 0, 0, 0, 0, 0, 0, 0, 0, 0, 0, 1774154179429, 0, 04:36:19.429
192, -0.79, 1.06, 1.14, -0.49, 2.55, -1.83, 0.15, 1.53, 0.000, 0.000, 0.000, 0, 0, 0, 0, 0, 0, 0, 0, 0, 0, 1774154179433, 0, 04:36:19.433
193, -0.81, 0.18, 1.03, -0.13, 2.55, -0.91, 0.44, 1.35, 0.000, 0.000, 0.000, 0, 0, 0, 0, 0, 0, 0, 0, 0, 0, 1774154179437, 0, 04:36:19.437
194, -0.70, -0.73, 0.70, 0.28, 2.10, 0.05, 0.56, 0.91, 0.000, 0.000, 0.000, 0, 0, 0, 0, 0, 0, 0, 0, 0, 0, 1774154179441, 0, 04:36:19.441
195, -0.45, -1.55, -0.08, 0.84, 1.32, 1.00, 0.55, 0.39, 0.000, 0.000, 0.000, 0, 0, 0, 0, 0, 0, 0, 0, 0, 0, 1774154179445, 0, 04:36:19.445
196, -0.19, -1.97, -0.85, 1.42, 0.43, 1.40, 0.13, 0.06, 0.000, 0.000, 0.000, 0, 0, 0, 0, 0, 0, 0, 0, 0, 0, 1774154179449, 0, 04:36:19.449
197, -0.10, -2.13, -1.82, 1.83, -0.48, 1.70, -0.47, -0.23, 0.000, 0.000, 0.000, 0, 0, 0, 0, 0, 0, 0, 0, 0, 0, 1774154179453, 0, 04:36:19.453
198, -0.27, -1.98, -2.52, 1.92, -1.31, 1.53, -1.21, -0.23, 0.000, 0.000, 0.000, 0, 0, 0, 0, 0, 0, 0, 0, 0, 0, 1774154179457, 0, 04:36:19.457
199, -0.73, -1.56, -2.88, 1.57, -1.83, 1.06, -1.90, 0.02, 0.000, 0.000, 0.000, 0, 0, 0, 0, 0, 0, 0, 0, 0, 0, 1774154179461, 0, 04:36:19.461
200, -1.24, -0.99, -2.89, 0.95, -1.91, 0.55, -2.36, 0.42, 0.000, 0.000, 0.000, 0, 0, 0, 0, 0, 0, 0, 0, 0, 0, 1774154179465, 0, 04:36:19.465
201, -1.83, -0.64, -2.48, 0.02, -1.75, 0.10, -2.50, 0.86, 0.000, 0.000, 0.000, 0, 0, 0, 0, 0, 0, 0, 0, 0, 0, 1774154179469, 0, 04:36:19.469
202, -2.19, -0.47, -1.70, -1.01, -1.15, -0.29, -2.36, 1.14, 0.000, 0.000, 0.000, 0, 0, 0, 0, 0, 0, 0, 0, 0, 0, 1774154179473, 0, 04:36:19.473
203, -2.42, -0.48, -0.71, -1.91, -0.53, -0.32, -1.73, 1.03, 0.000, 0.000, 0.000, 0, 0, 0, 0, 0, 0, 0, 0, 0, 0, 1774154179477, 0, 04:36:19.477
204, -2.38, -0.70, 0.17, -2.59, 0.02, -0.09, -0.86, 0.74, 0.000, 0.000, 0.000, 0, 0, 0, 0, 0, 0, 0, 0, 0, 0, 1774154179481, 0, 04:36:19.481
205, -1.82, -1.14, 0.98, -2.84, 0.42, 0.18, 0.13, 0.13, 0.000, 0.000, 0.000, 0, 0, 0, 0, 0, 0, 0, 0, 0, 0, 1774154179485, 0, 04:36:19.485
206, -1.03, -1.39, 1.49, -2.68, 0.56, 0.50, 0.94, -0.70, 0.000, 0.000, 0.000, 0, 0, 0, 0, 0, 0, 0, 0, 0, 0, 1774154179489, 0, 04:36:19.489
207, 0.02, -1.41, 1.69, -2.22, 0.50, 0.84, 1.65, -1.62, 0.000, 0.000, 0.000, 0, 0, 0, 0, 0, 0, 0, 0, 0, 0, 1774154179493, 0, 04:36:19.493
208, 1.05, -1.36, 1.51, -1.42, 0.18, 0.96, 1.94, -2.36, 0.000, 0.000, 0.000, 0, 0, 0, 0, 0, 0, 0, 0, 0, 0, 1774154179497, 0, 04:36:19.497
209, 1.88, -0.77, 1.27, -0.85, -0.30, 0.76, 1.93, -2.89, 0.000, 0.000, 0.000, 0, 0, 0, 0, 0, 0, 0, 0, 0, 0, 1774154179501, 0, 04:36:19.501
210, 2.24, -0.06, 0.79, -0.04, -0.57, 0.30, 1.47, -2.94, 0.000, 0.000, 0.000, 0, 0, 0, 0, 0, 0, 0, 0, 0, 0, 1774154179505, 0, 04:36:19.505
211, 2.30, 0.92, 0.49, 0.40, -0.66, -0.39, 0.86, -2.54, 0.000, 0.000, 0.000, 0, 0, 0, 0, 0, 0, 0, 0, 0, 0, 1774154179509, 0, 04:36:19.509
212, 1.89, 1.86, 0.39, 0.62, -0.42, -1.07, 0.15, -1.80, 0.000, 0.000, 0.000, 0, 0, 0, 0, 0, 0, 0, 0, 0, 0, 1774154179513, 0, 04:36:19.513
213, 1.38, 2.56, 0.47, 0.55, 0.00, -1.80, -0.39, -0.88, 0.000, 0.000, 0.000, 0, 0, 0, 0, 0, 0, 0, 0, 0, 0, 1774154179517, 0, 04:36:19.517
214, 0.60, 2.95, 0.82, 0.28, 0.63, -2.24, -0.77, 0.03, 0.000, 0.000, 0.000, 0, 0, 0, 0, 0, 0, 0, 0, 0, 0, 1774154179521, 0, 04:36:19.521
215, -0.07, 2.82, 1.27, 0.03, 1.32, -2.14, -0.75, 0.89, 0.000, 0.000, 0.000, 0, 0, 0, 0, 0, 0, 0, 0, 0, 0, 1774154179525, 0, 04:36:19.525
216, -0.59, 2.48, 1.73, -0.16, 1.80, -1.74, -0.57, 1.54, 0.000, 0.000, 0.000, 0, 0, 0, 0, 0, 0, 0, 0, 0, 0, 1774154179529, 0, 04:36:19.529
217, -0.77, 1.63, 1.87, -0.03, 2.15, -1.06, -0.24, 1.72, 0.000, 0.000, 0.000, 0, 0, 0, 0, 0, 0, 0, 0, 0, 0, 1774154179533, 0, 04:36:19.533
218, -0.79, 0.76, 1.73, 0.18, 1.98, -0.15, 0.11, 1.60, 0.000, 0.000, 0.000, 0, 0, 0, 0, 0, 0, 0, 0, 0, 0, 1774154179537, 0, 04:36:19.537
219, -0.49, -0.15, 1.36, 0.86, 1.44, 0.86, 0.28, 1.26, 0.000, 0.000, 0.000, 0, 0, 0, 0, 0, 0, 0, 0, 0, 0, 1774154179541, 0, 04:36:19.541
220, 0.06, -0.86, 0.61, 1.49, 0.65, 1.64, 0.39, 0.88, 0.000, 0.000, 0.000, 0, 0, 0, 0, 0, 0, 0, 0, 0, 0, 1774154179545, 0, 04:36:19.545
221, 0.23, -1.28, -0.36, 2.10, -0.28, 2.07, 0.13, 0.58, 0.000, 0.000, 0.000, 0, 0, 0, 0, 0, 0, 0, 0, 0, 0, 1774154179549, 0, 04:36:19.549
222, 0.40, -1.42, -1.44, 2.54, -1.34, 2.35, -0.30, 0.45, 0.000, 0.000, 0.000, 0, 0, 0, 0, 0, 0, 0, 0, 0, 0, 1774154179553, 0, 04:36:19.553
223, 0.44, -1.23, -2.24, 2.65, -2.08, 2.14, -0.88, 0.54, 0.000, 0.000, 0.000, 0, 0, 0, 0, 0, 0, 0, 0, 0, 0, 1774154179557, 0, 04:36:19.557
224, 0.14, -0.73, -2.63, 2.44, -2.62, 1.68, -1.48, 0.83, 0.000, 0.000, 0.000, 0, 0, 0, 0, 0, 0, 0, 0, 0, 0, 1774154179561, 0, 04:36:19.561
225, -0.58, -0.32, -2.80, 1.86, -2.71, 0.94, -1.83, 1.21, 0.000, 0.000, 0.000, 0, 0, 0, 0, 0, 0, 0, 0, 0, 0, 1774154179565, 0, 04:36:19.565
226, -1.11, 0.05, -2.51, 0.83, -2.35, 0.38, -2.01, 1.60, 0.000, 0.000, 0.000, 0, 0, 0, 0, 0, 0, 0, 0, 0, 0, 1774154179569, 0, 04:36:19.569
227, -1.55, 0.10, -1.82, -0.31, -1.86, -0.07, -1.72, 1.96, 0.000, 0.000, 0.000, 0, 0, 0, 0, 0, 0, 0, 0, 0, 0, 1774154179573, 0, 04:36:19.573
228, -1.69, -0.10, -0.97, -1.23, -1.08, -0.28, -0.99, 1.78, 0.000, 0.000, 0.000, 0, 0, 0, 0, 0, 0, 0, 0, 0, 0, 1774154179577, 0, 04:36:19.577
229, -1.69, -0.34, -0.20, -1.96, -0.44, -0.23, -0.12, 1.35, 0.000, 0.000, 0.000, 0, 0, 0, 0, 0, 0, 0, 0, 0, 0, 1774154179581, 0, 04:36:19.581
230, -1.16, -0.85, 0.52, -2.41, -0.01, -0.01, 0.87, 0.63, 0.000, 0.000, 0.000, 0, 0, 0, 0, 0, 0, 0, 0, 0, 0, 1774154179585, 0, 04:36:19.585
231, -0.33, -1.23, 0.97, -2.41, 0.26, 0.29, 1.88, -0.24, 0.000, 0.000, 0.000, 0, 0, 0, 0, 0, 0, 0, 0, 0, 0, 1774154179589, 0, 04:36:19.589
232, 0.58, -1.51, 0.96, -1.98, 0.22, 0.52, 2.48, -1.17, 0.000, 0.000, 0.000, 0, 0, 0, 0, 0, 0, 0, 0, 0, 0, 1774154179593, 0, 04:36:19.593
233, 1.44, -1.34, 0.81, -1.35, 0.06, 0.53, 2.73, -2.10, 0.000, 0.000, 0.000, 0, 0, 0, 0, 0, 0, 0, 0, 0, 0, 1774154179597, 0, 04:36:19.597
234, 2.15, -1.08, 0.38, -0.80, -0.13, 0.16, 2.59, -2.57, 0.000, 0.000, 0.000, 0, 0, 0, 0, 0, 0, 0, 0, 0, 0, 1774154179601, 0, 04:36:19.601
235, 2.43, -0.39, -0.03, -0.20, -0.42, -0.37, 2.21, -2.81, 0.000, 0.000, 0.000, 0, 0, 0, 0, 0, 0, 0, 0, 0, 0, 1774154179605, 0, 04:36:19.605
236, 2.42, 0.46, -0.32, 0.21, -0.35, -1.13, 1.45, -2.52, 0.000, 0.000, 0.000, 0, 0, 0, 0, 0, 0, 0, 0, 0, 0, 1774154179609, 0, 04:36:19.609
237, 1.97, 1.22, -0.37, 0.26, -0.08, -1.93, 0.68, -2.01, 0.000, 0.000, 0.000, 0, 0, 0, 0, 0, 0, 0, 0, 0, 0, 1774154179613, 0, 04:36:19.613
238, 1.27, 1.92, -0.26, 0.15, 0.46, -2.65, 0.03, -1.19, 0.000, 0.000, 0.000, 0, 0, 0, 0, 0, 0, 0, 0, 0, 0, 1774154179617, 0, 04:36:19.617
239, 0.38, 2.30, 0.10, -0.31, 1.17, -2.97, -0.41, -0.29, 0.000, 0.000, 0.000, 0, 0, 0, 0, 0, 0, 0, 0, 0, 0, 1774154179621, 0, 04:36:19.621
240, -0.37, 2.11, 0.62, -0.47, 1.88, -2.95, -0.61, 0.46, 0.000, 0.000, 0.000, 0, 0, 0, 0, 0, 0, 0, 0, 0, 0, 1774154179625, 0, 04:36:19.625
241, -0.95, 1.67, 1.01, -0.87, 2.53, -2.56, -0.52, 0.90, 0.000, 0.000, 0.000, 0, 0, 0, 0, 0, 0, 0, 0, 0, 0, 1774154179629, 0, 04:36:19.629
242, -1.31, 0.74, 1.36, -0.88, 2.81, -1.78, -0.31, 1.08, 0.000, 0.000, 0.000, 0, 0, 0, 0, 0, 0, 0, 0, 0, 0, 1774154179633, 0, 04:36:19.633
243, -1.32, -0.06, 1.38, -0.50, 2.70, -0.76, -0.04, 0.95, 0.000, 0.000, 0.000, 0, 0, 0, 0, 0, 0, 0, 0, 0, 0, 1774154179637, 0, 04:36:19.637
244, -1.11, -0.96, 0.96, -0.02, 2.30, 0.33, 0.04, 0.50, 0.000, 0.000, 0.000, 0, 0, 0, 0, 0, 0, 0, 0, 0, 0, 1774154179641, 0, 04:36:19.641
245, -0.79, -1.67, 0.31, 0.70, 1.43, 1.14, 0.08, 0.13, 0.000, 0.000, 0.000, 0, 0, 0, 0, 0, 0, 0, 0, 0, 0, 1774154179645, 0, 04:36:19.645
246, -0.52, -1.95, -0.50, 1.34, 0.39, 1.73, -0.39, -0.21, 0.000, 0.000, 0.000, 0, 0, 0, 0, 0, 0, 0, 0, 0, 0, 1774154179649, 0, 04:36:19.649
247, -0.33, -2.03, -1.48, 1.80, -0.56, 2.03, -0.88, -0.35, 0.000, 0.000, 0.000, 0, 0, 0, 0, 0, 0, 0, 0, 0, 0, 1774154179653, 0, 04:36:19.653
248, -0.45, -1.73, -2.05, 1.93, -1.57, 2.02, -1.63, -0.20, 0.000, 0.000, 0.000, 0, 0, 0, 0, 0, 0, 0, 0, 0, 0, 1774154179657, 0, 04:36:19.657
249, -0.68, -1.25, -2.32, 1.76, -1.97, 1.50, -2.21, 0.09, 0.000, 0.000, 0.000, 0, 0, 0, 0, 0, 0, 0, 0, 0, 0, 1774154179661, 0, 04:36:19.661
250, -1.19, -0.79, -2.46, 1.14, -2.24, 1.08, -2.67, 0.49, 0.000, 0.000, 0.000, 0, 0, 0, 0, 0, 0, 0, 0, 0, 0, 1774154179665, 0, 04:36:19.665
251, -1.77, -0.32, -2.05, 0.36, -1.99, 0.61, -2.74, 1.05, 0.000, 0.000, 0.000, 0, 0, 0, 0, 0, 0, 0, 0, 0, 0, 1774154179669, 0, 04:36:19.669
252, -2.23, 0.00, -1.27, -0.65, -1.56, 0.11, -2.44, 1.33, 0.000, 0.000, 0.000, 0, 0, 0, 0, 0, 0, 0, 0, 0, 0, 1774154179673, 0, 04:36:19.673
253, -2.37, -0.16, -0.32, -1.56, -0.99, 0.14, -1.84, 1.45, 0.000, 0.000, 0.000, 0, 0, 0, 0, 0, 0, 0, 0, 0, 0, 1774154179677, 0, 04:36:19.677
254, -2.04, -0.33, 0.55, -2.21, -0.34, 0.29, -0.86, 1.17, 0.000, 0.000, 0.000, 0, 0, 0, 0, 0, 0, 0, 0, 0, 0, 1774154179681, 0, 04:36:19.681
255, -1.49, -0.65, 1.14, -2.40, 0.05, 0.56, 0.27, 0.43, 0.000, 0.000, 0.000, 0, 0, 0, 0, 0, 0, 0, 0, 0, 0, 1774154179685, 0, 04:36:19.685
0, -0.59, -0.85, 1.71, -2.31, 0.07, 0.90, 1.12, -0.31, 0.000, 0.000, 0.000, 0, 0, 0, 0, 0, 0, 0, 0, 0, 0, 1774154179689, 0, 04:36:19.689
1, 0.35, -1.02, 1.90, -1.83, -0.03, 1.17, 1.88, -1.13, 0.000, 0.000, 0.000, 0, 0, 0, 0, 0, 0, 0, 0, 0, 0, 1774154179693, 0, 04:36:19.693
2, 1.49, -0.93, 1.61, -1.04, -0.35, 1.22, 2.33, -1.95, 0.000, 0.000, 0.000, 0, 0, 0, 0, 0, 0, 0, 0, 0, 0, 1774154179697, 0, 04:36:19.697
3, 2.28, -0.38, 1.12, -0.38, -0.63, 0.96, 2.28, -2.30, 0.000, 0.000, 0.000, 0, 0, 0, 0, 0, 0, 0, 0, 0, 0, 1774154179701, 0, 04:36:19.701
4, 2.67, 0.26, 0.73, 0.43, -1.08, 0.40, 1.92, -2.36, 0.000, 0.000, 0.000, 0, 0, 0, 0, 0, 0, 0, 0, 0, 0, 1774154179705, 0, 04:36:19.705
5, 2.74, 1.22, 0.29, 0.79, -1.01, -0.35, 1.37, -2.08, 0.000, 0.000, 0.000, 0, 0, 0, 0, 0, 0, 0, 0, 0, 0, 1774154179709, 0, 04:36:19.709
6, 2.43, 1.96, 0.24, 0.93, -0.82, -1.10, 0.63, -1.42, 0.000, 0.000, 0.000, 0, 0, 0, 0, 0, 0, 0, 0, 0, 0, 1774154179713, 0, 04:36:19.713
7, 1.79, 2.73, 0.21, 0.76, -0.39, -1.93, 0.09, -0.61, 0.000, 0.000, 0.000, 0, 0, 0, 0, 0, 0, 0, 0, 0, 0, 1774154179717, 0, 04:36:19.717
8, 1.00, 2.97, 0.53, 0.56, 0.39, -2.41, -0.26, 0.46, 0.000, 0.000, 0.000, 0, 0, 0, 0, 0, 0, 0, 0, 0, 0, 1774154179721, 0, 04:36:19.721
9, 0.27, 2.84, 0.87, 0.20, 1.23, -2.35, -0.31, 1.30, 0.000, 0.000, 0.000, 0, 0, 0, 0, 0, 0, 0, 0, 0, 0, 1774154179725, 0, 04:36:19.725
10, -0.29, 2.36, 1.22, -0.05, 1.73, -2.08, -0.05, 1.79, 0.000, 0.000, 0.000, 0, 0, 0, 0, 0, 0, 0, 0, 0, 0, 1774154179729, 0, 04:36:19.729
11, -0.55, 1.56, 1.48, -0.01, 2.13, -1.42, 0.13, 1.86, 0.000, 0.000, 0.000, 0, 0, 0, 0, 0, 0, 0, 0, 0, 0, 1774154179733, 0, 04:36:19.733
12, -0.49, 0.53, 1.28, 0.16, 2.11, -0.52, 0.49, 1.66, 0.000, 0.000, 0.000, 0, 0, 0, 0, 0, 0, 0, 0, 0, 0, 1774154179737, 0, 04:36:19.737
13, -0.47, -0.39, 0.78, 0.64, 1.62, 0.43, 0.69, 1.37, 0.000, 0.000, 0.000, 0, 0, 0, 0, 0, 0, 0, 0, 0, 0, 1774154179741, 0, 04:36:19.741
14, -0.05, -1.23, -0.02, 1.26, 0.88, 1.18, 0.80, 0.86, 0.000, 0.000, 0.000, 0, 0, 0, 0, 0, 0, 0, 0, 0, 0, 1774154179745, 0, 04:36:19.745
15, 0.23, -1.64, -0.99, 1.90, -0.13, 1.73, 0.41, 0.49, 0.000, 0.000, 0.000, 0, 0, 0, 0, 0, 0, 0, 0, 0, 0, 1774154179749, 0, 04:36:19.749
16, 0.33, -1.77, -1.92, 2.26, -1.02, 1.80, -0.11, 0.27, 0.000, 0.000, 0.000, 0, 0, 0, 0, 0, 0, 0, 0, 0, 0, 1774154179753, 0, 04:36:19.753
17, 0.13, -1.62, -2.64, 2.36, -1.69, 1.62, -0.85, 0.28, 0.000, 0.000, 0.000, 0, 0, 0, 0, 0, 0, 0, 0, 0, 0, 1774154179757, 0, 04:36:19.757
18, -0.35, -1.26, -3.06, 1.94, -2.16, 1.05, -1.44, 0.57, 0.000, 0.000, 0.000, 0, 0, 0, 0, 0, 0, 0, 0, 0, 0, 1774154179761, 0, 04:36:19.761
19, -0.83, -0.82, -3.18, 1.31, -2.20, 0.61, -1.85, 0.94, 0.000, 0.000, 0.000, 0, 0, 0, 0, 0, 0, 0, 0, 0, 0, 1774154179765, 0, 04:36:19.765
20, -1.39, -0.48, -2.71, 0.31, -1.89, -0.03, -2.04, 1.22, 0.000, 0.000, 0.000, 0, 0, 0, 0, 0, 0, 0, 0, 0, 0, 1774154179769, 0, 04:36:19.769
21, -2.06, -0.29, -2.11, -0.80, -1.22, -0.39, -1.83, 1.40, 0.000, 0.000, 0.000, 0, 0, 0, 0, 0, 0, 0, 0, 0, 0, 1774154179773, 0, 04:36:19.773
22, -2.19, -0.46, -1.18, -1.72, -0.64, -0.55, -1.31, 1.26, 0.000, 0.000, 0.000, 0, 0, 0, 0, 0, 0, 0, 0, 0, 0, 1774154179777, 0, 04:36:19.777
23, -2.14, -0.78, -0.31, -2.47, 0.10, -0.45, -0.40, 0.96, 0.000, 0.000, 0.000, 0, 0, 0, 0, 0, 0, 0, 0, 0, 0, 1774154179781, 0, 04:36:19.781
24, -1.64, -1.10, 0.55, -2.85, 0.50, -0.18, 0.57, 0.21, 0.000, 0.000, 0.000, 0, 0, 0, 0, 0, 0, 0, 0, 0, 0, 1774154179785, 0, 04:36:19.785
25, -0.91, -1.58, 1.09, -2.77, 0.77, 0.20, 1.39, -0.63, 0.000, 0.000, 0.000, 0, 0, 0, 0, 0, 0, 0, 0, 0, 0, 1774154179789, 0, 04:36:19.789
26, 0.06, -1.76, 1.07, -2.37, 0.57, 0.41, 2.09, -1.63, 0.000, 0.000, 0.000, 0, 0, 0, 0, 0, 0, 0, 0, 0, 0, 1774154179793, 0, 04:36:19.793
27, 1.05, -1.63, 1.01, -1.73, 0.39, 0.47, 2.36, -2.45, 0.000, 0.000, 0.000, 0, 0, 0, 0, 0, 0, 0, 0, 0, 0, 1774154179797, 0, 04:36:19.797
28, 1.74, -1.26, 0.77, -1.03, 0.04, 0.31, 2.16, -2.93, 0.000, 0.000, 0.000, 0, 0, 0, 0, 0, 0, 0, 0, 0, 0, 1774154179801, 0, 04:36:19.801
29, 2.18, -0.50, 0.28, -0.45, -0.17, -0.20, 1.74, -3.07, 0.000, 0.000, 0.000, 0, 0, 0, 0, 0, 0, 0, 0, 0, 0, 1774154179805, 0, 04:36:19.805
30, 2.14, 0.40, 0.11, 0.03, -0.17, -0.78, 1.00, -2.80, 0.000, 0.000, 0.000, 0, 0, 0, 0, 0, 0, 0, 0, 0, 0, 1774154179809, 0, 04:36:19.809
31, 1.71, 1.34, 0.09, 0.13, 0.01, -1.57, 0.31, -2.05, 0.000, 0.000, 0.000, 0, 0, 0, 0, 0, 0, 0, 0, 0, 0, 1774154179813, 0, 04:36:19.813
32, 1.10, 2.01, 0.22, 0.02, 0.53, -2.24, -0.30, -1.21, 0.000, 0.000, 0.000, 0, 0, 0, 0, 0, 0, 0, 0, 0, 0, 1774154179817, 0, 04:36:19.817
33, 0.26, 2.41, 0.64, -0.19, 1.09, -2.56, -0.86, -0.33, 0.000, 0.000, 0.000, 0, 0, 0, 0, 0, 0, 0, 0, 0, 0, 1774154179821, 0, 04:36:19.821
34, -0.45, 2.44, 1.19, -0.41, 1.75, -2.50, -0.91, 0.48, 0.000, 0.000, 0.000, 0, 0, 0, 0, 0, 0, 0, 0, 0, 0, 1774154179825, 0, 04:36:19.825
35, -1.04, 2.01, 1.65, -0.59, 2.32, -2.06, -0.76, 1.08, 0.000, 0.000, 0.000, 0, 0, 0, 0, 0, 0, 0, 0, 0, 0, 1774154179829, 0, 04:36:19.829
36, -1.26, 1.23, 1.82, -0.54, 2.57, -1.25, -0.57, 1.28, 0.000, 0.000, 0.000, 0, 0, 0, 0, 0, 0, 0, 0, 0, 0, 1774154179833, 0, 04:36:19.833
37, -1.24, 0.32, 1.76, -0.19, 2.42, -0.26, -0.23, 1.14, 0.000, 0.000, 0.000, 0, 0, 0, 0, 0, 0, 0, 0, 0, 0, 1774154179837, 0, 04:36:19.837
38, -0.88, -0.44, 1.36, 0.45, 1.85, 0.71, -0.02, 0.95, 0.000, 0.000, 0.000, 0, 0, 0, 0, 0, 0, 0, 0, 0, 0, 1774154179841, 0, 04:36:19.841
39, -0.58, -1.12, 0.76, 1.01, 1.09, 1.57, 0.00, 0.60, 0.000, 0.000, 0.000, 0, 0, 0, 0, 0, 0, 0, 0, 0, 0, 1774154179845, 0, 04:36:19.845
40, -0.13, -1.59, -0.24, 1.85, -0.03, 2.25, -0.27, 0.31, 0.000, 0.000, 0.000, 0, 0, 0, 0, 0, 0, 0, 0, 0, 0, 1774154179849, 0, 04:36:19.849
41, 0.01, -1.54, -1.10, 2.21, -0.99, 2.51, -0.75, 0.22, 0.000, 0.000, 0.000, 0, 0, 0, 0, 0, 0, 0, 0, 0, 0, 1774154179853, 0, 04:36:19.853
42, 0.03, -1.23, -1.85, 2.41, -1.92, 2.32, -1.30, 0.38, 0.000, 0.000, 0.000, 0, 0, 0, 0, 0, 0, 0, 0, 0, 0, 1774154179857, 0, 04:36:19.857
43, -0.29, -0.73, -2.33, 2.23, -2.44, 1.97, -2.00, 0.73, 0.000, 0.000, 0.000, 0, 0, 0, 0, 0, 0, 0, 0, 0, 0, 1774154179861, 0, 04:36:19.861
44, -0.71, -0.21, -2.35, 1.77, -2.59, 1.34, -2.33, 1.14, 0.000, 0.000, 0.000, 0, 0, 0, 0, 0, 0, 0, 0, 0, 0, 1774154179865, 0, 04:36:19.865
45, -1.27, 0.16, -1.90, 0.88, -2.44, 0.85, -2.31, 1.59, 0.000, 0.000, 0.000, 0, 0, 0, 0, 0, 0, 0, 0, 0, 0, 1774154179869, 0, 04:36:19.869
46, -1.77, 0.35, -1.37, -0.14, -1.88, 0.44, -1.98, 1.82, 0.000, 0.000, 0.000, 0, 0, 0, 0, 0, 0, 0, 0, 0, 0, 1774154179873, 0, 04:36:19.873
47, -1.84, 0.25, -0.54, -1.07, -1.18, 0.26, -1.35, 1.93, 0.000, 0.000, 0.000, 0, 0, 0, 0, 0, 0, 0, 0, 0, 0, 1774154179877, 0, 04:36:19.877
48, -1.68, -0.07, 0.37, -1.84, -0.66, 0.23, -0.31, 1.63, 0.000, 0.000, 0.000, 0, 0, 0, 0, 0, 0, 0, 0, 0, 0, 1774154179881, 0, 04:36:19.881
49, -1.09, -0.46, 1.01, -2.05, -0.20, 0.53, 0.80, 0.97, 0.000, 0.000, 0.000, 0, 0, 0, 0, 0, 0, 0, 0, 0, 0, 1774154179885, 0, 04:36:19.885
50, -0.14, -0.81, 1.45, -2.01, -0.02, 0.87, 1.72, 0.01, 0.000, 0.000, 0.000, 0, 0, 0, 0, 0, 0, 0, 0, 0, 0, 1774154179889, 0, 04:36:19.889
51, 0.82, -1.01, 1.44, -1.60, -0.10, 1.03, 2.40, -0.84, 0.000, 0.000, 0.000, 0, 0, 0, 0, 0, 0, 0, 0, 0, 0, 1774154179893, 0, 04:36:19.893
52, 1.72, -1.02, 1.18, -0.92, -0.34, 1.02, 2.85, -1.60, 0.000, 0.000, 0.000, 0, 0, 0, 0, 0, 0, 0, 0, 0, 0, 1774154179897, 0, 04:36:19.897
53, 2.45, -0.55, 0.68, -0.26, -0.61, 0.61, 2.85, -2.20, 0.000, 0.000, 0.000, 0, 0, 0, 0, 0, 0, 0, 0, 0, 0, 1774154179901, 0, 04:36:19.901
54, 2.89, 0.13, 0.21, 0.39, -0.79, 0.18, 2.32, -2.29, 0.000, 0.000, 0.000, 0, 0, 0, 0, 0, 0, 0, 0, 0, 0, 1774154179905, 0, 04:36:19.905
55, 2.81, 0.93, -0.18, 0.62, -0.87, -0.75, 1.73, -2.00, 0.000, 0.000, 0.000, 0, 0, 0, 0, 0, 0, 0, 0, 0, 0, 1774154179909, 0, 04:36:19.909
56, 2.42, 1.73, -0.24, 0.79, -0.49, -1.65, 1.08, -1.36, 0.000, 0.000, 0.000, 0, 0, 0, 0, 0, 0, 0, 0, 0, 0, 1774154179913, 0, 04:36:19.913
57, 1.76, 2.37, -0.24, 0.56, 0.06, -2.31, 0.41, -0.51, 0.000, 0.000, 0.000, 0, 0, 0, 0, 0, 0, 0, 0, 0, 0, 1774154179917, 0, 04:36:19.917
58, 0.96, 2.57, 0.19, 0.24, 0.80, -2.86, -0.08, 0.24, 0.000, 0.000, 0.000, 0, 0, 0, 0, 0, 0, 0, 0, 0, 0, 1774154179921, 0, 04:36:19.921
59, 0.13, 2.40, 0.54, -0.10, 1.66, -2.87, -0.11, 0.99, 0.000, 0.000, 0.000, 0, 0, 0, 0, 0, 0, 0, 0, 0, 0, 1774154179925, 0, 04:36:19.925
60, -0.62, 1.93, 0.91, -0.43, 2.21, -2.35, -0.08, 1.44, 0.000, 0.000, 0.000, 0, 0, 0, 0, 0, 0, 0, 0, 0, 0, 1774154179929, 0, 04:36:19.929
61, -0.84, 1.14, 1.10, -0.40, 2.54, -1.79, 0.16, 1.57, 0.000, 0.000, 0.000, 0, 0, 0, 0, 0, 0, 0, 0, 0, 0, 1774154179933, 0, 04:36:19.933
62, -0.90, 0.19, 1.09, -0.19, 2.62, -0.91, 0.41, 1.38, 0.000, 0.000, 0.000, 0, 0, 0, 0, 0, 0, 0, 0, 0, 0, 1774154179937, 0, 04:36:19.937
63, -0.71, -0.82, 0.62, 0.26, 2.10, 0.13, 0.69, 1.01, 0.000, 0.000, 0.000, 0, 0, 0, 0, 0, 0, 0, 0, 0, 0, 1774154179941, 0, 04:36:19.941
64, -0.37, -1.68, -0.09, 0.87, 1.32, 0.93, 0.51, 0.35, 0.000, 0.000, 0.000, 0, 0, 0, 0, 0, 0, 0, 0, 0, 0, 1774154179945, 0, 04:36:19.945
65, -0.31, -2.06, -0.85, 1.46, 0.51, 1.58, 0.21, 0.08, 0.000, 0.000, 0.000, 0, 0, 0, 0, 0, 0, 0, 0, 0, 0, 1774154179949, 0, 04:36:19.949
66, -0.16, -2.12, -1.78, 1.82, -0.48, 1.70, -0.37, -0.13, 0.000, 0.000, 0.000, 0, 0, 0, 0, 0, 0, 0, 0, 0, 0, 1774154179953, 0, 04:36:19.953
67, -0.27, -1.90, -2.52, 1.94, -1.25, 1.61, -1.10, -0.13, 0.000, 0.000, 0.000, 0, 0, 0, 0, 0, 0, 0, 0, 0, 0, 1774154179957, 0, 04:36:19.957
68, -0.77, -1.45, -2.86, 1.64, -1.77, 1.14, -1.78, 0.04, 0.000, 0.000, 0.000, 0, 0, 0, 0, 0, 0, 0, 0, 0, 0, 1774154179961, 0, 04:36:19.961
69, -1.19, -1.04, -2.88, 0.97, -1.92, 0.78, -2.27, 0.55, 0.000, 0.000, 0.000, 0, 0, 0, 0, 0, 0, 0, 0, 0, 0, 1774154179965, 0, 04:36:19.965
70, -1.84, -0.60, -2.42, 0.17, -1.65, 0.18, -2.45, 0.93, 0.000, 0.000, 0.000, 0, 0, 0, 0, 0, 0, 0, 0, 0, 0, 1774154179969, 0, 04:36:19.969
71, -2.28, -0.40, -1.72, -0.89, -1.10, -0.18, -2.27, 1.30, 0.000, 0.000, 0.000, 0, 0, 0, 0, 0, 0, 0, 0, 0, 0, 1774154179973, 0, 04:36:19.973
72, -2.54, -0.43, -0.63, -1.85, -0.52, -0.27, -1.68, 1.22, 0.000, 0.000, 0.000, 0, 0, 0, 0, 0, 0, 0, 0, 0, 0, 1774154179977, 0, 04:36:19.977
73, -2.31, -0.75, 0.20, -2.48, 0.14, -0.12, -0.78, 0.83, 0.000, 0.000, 0.000, 0, 0, 0, 0, 0, 0, 0, 0, 0, 0, 1774154179981, 0, 04:36:19.981
74, -1.75, -1.07, 1.09, -2.82, 0.49, 0.21, 0.21, 0.13, 0.000, 0.000, 0.000, 0, 0, 0, 0, 0, 0, 0, 0, 0, 0, 1774154179985, 0, 04:36:19.985
75, -0.95, -1.48, 1.51, -2.67, 0.66, 0.61, 1.14, -0.59, 0.000, 0.000, 0.000, 0, 0, 0, 0, 0, 0, 0, 0, 0, 0, 1774154179989, 0, 04:36:19.989
76, 0.06, -1.49, 1.73, -2.19, 0.53, 1.04, 1.84, -1.48, 0.000, 0.000, 0.000, 0, 0, 0, 0, 0, 0, 0, 0, 0, 0, 1774154179993, 0, 04:36:19.993
77, 1.05, -1.31, 1.59, -1.52, 0.22, 1.03, 2.12, -2.27, 0.000, 0.000, 0.000, 0, 0, 0, 0, 0, 0, 0, 0, 0, 0, 1774154179997, 0, 04:36:19.997
78, 1.79, -0.83, 1.29, -0.67, -0.15, 0.76, 1.99, -2.69, 0.000, 0.000, 0.000, 0, 0, 0, 0, 0, 0, 0, 0, 0, 0, 1774154180001, 0, 04:36:20.001
79, 2.28, 0.00, 0.81, -0.03, -0.49, 0.33, 1.52, -2.79, 0.000, 0.000, 0.000, 0, 0, 0, 0, 0, 0, 0, 0, 0, 0, 1774154180005, 0, 04:36:20.005
80, 2.34, 0.92, 0.60, 0.45, -0.55, -0.26, 0.96, -2.37, 0.000, 0.000, 0.000, 0, 0, 0, 0, 0, 0, 0, 0, 0, 0, 1774154180009, 0, 04:36:20.009
81, 2.03, 1.73, 0.54, 0.62, -0.36, -1.07, 0.25, -1.66, 0.000, 0.000, 0.000, 0, 0, 0, 0, 0, 0, 0, 0, 0, 0, 1774154180013, 0, 04:36:20.013
82, 1.45, 2.57, 0.58, 0.72, -0.04, -1.71, -0.29, -0.85, 0.000, 0.000, 0.000, 0, 0, 0, 0, 0, 0, 0, 0, 0, 0, 1774154180017, 0, 04:36:20.017
83, 0.62, 2.90, 0.92, 0.32, 0.74, -2.02, -0.59, 0.13, 0.000, 0.000, 0.000, 0, 0, 0, 0, 0, 0, 0, 0, 0, 0, 1774154180021, 0, 04:36:20.021
84, -0.02, 2.94, 1.33, 0.00, 1.39, -2.13, -0.67, 1.13, 0.000, 0.000, 0.000, 0, 0, 0, 0, 0, 0, 0, 0, 0, 0, 1774154180025, 0, 04:36:20.025
85, -0.45, 2.41, 1.72, -0.12, 1.95, -1.67, -0.39, 1.64, 0.000, 0.000, 0.000, 0, 0, 0, 0, 0, 0, 0, 0, 0, 0, 1774154180029, 0, 04:36:20.029
86, -0.77, 1.72, 2.01, 0.06, 2.12, -1.00, -0.11, 1.77, 0.000, 0.000, 0.000, 0, 0, 0, 0, 0, 0, 0, 0, 0, 0, 1774154180033, 0, 04:36:20.033
87, -0.71, 0.78, 1.77, 0.42, 2.06, 0.00, 0.33, 1.67, 0.000, 0.000, 0.000, 0, 0, 0, 0, 0, 0, 0, 0, 0, 0, 1774154180037, 0, 04:36:20.037
88, -0.38, -0.09, 1.32, 0.87, 1.52, 0.92, 0.53, 1.45, 0.000, 0.000, 0.000, 0, 0, 0, 0, 0, 0, 0, 0, 0, 0, 1774154180041, 0, 04:36:20.041
89, 0.04, -0.82, 0.68, 1.64, 0.79, 1.75, 0.58, 0.99, 0.000, 0.000, 0.000, 0, 0, 0, 0, 0, 0, 0, 0, 0, 0, 1774154180045, 0, 04:36:20.045
90, 0.33, -1.25, -0.32, 2.25, -0.30, 2.32, 0.28, 0.70, 0.000, 0.000, 0.000, 0, 0, 0, 0, 0, 0, 0, 0, 0, 0, 1774154180049, 0, 04:36:20.049
91, 0.56, -1.39, -1.22, 2.64, -1.26, 2.47, -0.23, 0.57, 0.000, 0.000, 0.000, 0, 0, 0, 0, 0, 0, 0, 0, 0, 0, 1774154180053, 0, 04:36:20.053
92, 0.44, -1.17, -2.16, 2.74, -1.99, 2.21, -0.81, 0.65, 0.000, 0.000, 0.000, 0, 0, 0, 0, 0, 0, 0, 0, 0, 0, 1774154180057, 0, 04:36:20.057
93, 0.10, -0.73, -2.63, 2.48, -2.52, 1.71, -1.37, 1.00, 0.000, 0.000, 0.000, 0, 0, 0, 0, 0, 0, 0, 0, 0, 0, 1774154180061, 0, 04:36:20.061
94, -0.44, -0.27, -2.76, 1.85, -2.61, 1.17, -1.79, 1.46, 0.000, 0.000, 0.000, 0, 0, 0, 0, 0, 0, 0, 0, 0, 0, 1774154180065, 0, 04:36:20.065
95, -0.93, 0.03, -2.41, 0.89, -2.23, 0.52, -1.89, 1.75, 0.000, 0.000, 0.000, 0, 0, 0, 0, 0, 0, 0, 0, 0, 0, 1774154180069, 0, 04:36:20.069
96, -1.51, 0.21, -1.85, -0.21, -1.65, 0.03, -1.53, 1.95, 0.000, 0.000, 0.000, 0, 0, 0, 0, 0, 0, 0, 0, 0, 0, 1774154180073, 0, 04:36:20.073
97, -1.81, 0.03, -0.90, -1.16, -0.97, -0.19, -0.95, 1.97, 0.000, 0.000, 0.000, 0, 0, 0, 0, 0, 0, 0, 0, 0, 0, 1774154180077, 0, 04:36:20.077
98, -1.50, -0.35, -0.07, -1.79, -0.30, -0.06, -0.06, 1.64, 0.000, 0.000, 0.000, 0, 0, 0, 0, 0, 0, 0, 0, 0, 0, 1774154180081, 0, 04:36:20.081
99, -1.10, -0.77, 0.60, -2.25, 0.14, 0.13, 0.97, 0.83, 0.000, 0.000, 0.000, 0, 0, 0, 0, 0, 0, 0, 0, 0, 0, 1774154180085, 0, 04:36:20.085
100, -0.29, -1.16, 1.00, -2.20, 0.38, 0.40, 1.93, -0.04, 0.000, 0.000, 0.000, 0, 0, 0, 0, 0, 0, 0, 0, 0, 0, 1774154180089, 0, 04:36:20.089
101, 0.70, -1.38, 1.07, -1.84, 0.34, 0.62, 2.55, -1.10, 0.000, 0.000, 0.000, 0, 0, 0, 0, 0, 0, 0, 0, 0, 0, 1774154180093, 0, 04:36:20.093
102, 1.46, -1.24, 0.95, -1.26, 0.18, 0.63, 2.87, -1.92, 0.000, 0.000, 0.000, 0, 0, 0, 0, 0, 0, 0, 0, 0, 0, 1774154180097, 0, 04:36:20.097
103, 2.17, -0.98, 0.48, -0.61, -0.12, 0.33, 2.79, -2.54, 0.000, 0.000, 0.000, 0, 0, 0, 0, 0, 0, 0, 0, 0, 0, 1774154180101, 0, 04:36:20.101
104, 2.50, -0.28, 0.15, -0.00, -0.29, -0.17, 2.32, -2.66, 0.000, 0.000, 0.000, 0, 0, 0, 0, 0, 0, 0, 0, 0, 0, 1774154180105, 0, 04:36:20.105
105, 2.48, 0.57, -0.09, 0.34, -0.22, -0.91, 1.56, -2.43, 0.000, 0.000, 0.000, 0, 0, 0, 0, 0, 0, 0, 0, 0, 0, 1774154180109, 0, 04:36:20.109
106, 2.09, 1.37, -0.21, 0.39, 0.10, -1.74, 0.76, -1.79, 0.000, 0.000, 0.000, 0, 0, 0, 0, 0, 0, 0, 0, 0, 0, 1774154180113, 0, 04:36:20.113
107, 1.37, 1.98, -0.20, 0.18, 0.61, -2.37, 0.12, -0.92, 0.000, 0.000, 0.000, 0, 0, 0, 0, 0, 0, 0, 0, 0, 0, 1774154180117, 0, 04:36:20.117
108, 0.51, 2.25, 0.22, -0.10, 1.40, -2.82, -0.27, -0.16, 0.000, 0.000, 0.000, 0, 0, 0, 0, 0, 0, 0, 0, 0, 0, 1774154180121, 0, 04:36:20.121
109, -0.37, 2.21, 0.75, -0.46, 2.02, -2.79, -0.44, 0.49, 0.000, 0.000, 0.000, 0, 0, 0, 0, 0, 0, 0, 0, 0, 0, 1774154180125, 0, 04:36:20.125
110, -1.02, 1.71, 1.18, -0.68, 2.57, -2.36, -0.39, 1.05, 0.000, 0.000, 0.000, 0, 0, 0, 0, 0, 0, 0, 0, 0, 0, 1774154180129, 0, 04:36:20.129
111, -1.22, 0.90, 1.39, -0.53, 2.99, -1.59, -0.12, 1.23, 0.000, 0.000, 0.000, 0, 0, 0, 0, 0, 0, 0, 0, 0, 0, 1774154180133, 0, 04:36:20.133
112, -1.26, 0.02, 1.46, -0.44, 2.84, -0.59, 0.16, 1.08, 0.000, 0.000, 0.000, 0, 0, 0, 0, 0, 0, 0, 0, 0, 0, 1774154180137, 0, 04:36:20.137
113, -1.00, -0.88, 1.09, 0.21, 2.38, 0.44, 0.20, 0.72, 0.000, 0.000, 0.000, 0, 0, 0, 0, 0, 0, 0, 0, 0, 0, 1774154180141, 0, 04:36:20.141
114, -0.65, -1.49, 0.53, 0.79, 1.48, 1.40, 0.22, 0.38, 0.000, 0.000, 0.000, 0, 0, 0, 0, 0, 0, 0, 0, 0, 0, 1774154180145, 0, 04:36:20.145
115, -0.38, -1.86, -0.41, 1.49, 0.51, 1.91, -0.20, -0.03, 0.000, 0.000, 0.000, 0, 0, 0, 0, 0, 0, 0, 0, 0, 0, 1774154180149, 0, 04:36:20.149
116, -0.21, -1.94, -1.20, 2.07, -0.55, 2.18, -0.69, -0.18, 0.000, 0.000, 0.000, 0, 0, 0, 0, 0, 0, 0, 0, 0, 0, 1774154180153, 0, 04:36:20.153
117, -0.33, -1.62, -2.01, 2.06, -1.36, 2.08, -1.38, -0.11, 0.000, 0.000, 0.000, 0, 0, 0, 0, 0, 0, 0, 0, 0, 0, 1774154180157, 0, 04:36:20.157
118, -0.64, -1.20, -2.39, 1.85, -1.90, 1.69, -2.14, 0.19, 0.000, 0.000, 0.000, 0, 0, 0, 0, 0, 0, 0, 0, 0, 0, 1774154180161, 0, 04:36:20.161
119, -1.19, -0.60, -2.29, 1.30, -2.04, 1.10, -2.53, 0.76, 0.000, 0.000, 0.000, 0, 0, 0, 0, 0, 0, 0, 0, 0, 0, 1774154180165, 0, 04:36:20.165
120, -1.69, -0.12, -1.86, 0.41, -1.79, 0.77, -2.65, 1.23, 0.000, 0.000, 0.000, 0, 0, 0, 0, 0, 0, 0, 0, 0, 0, 1774154180169, 0, 04:36:20.169
121, -2.07, 0.12, -1.22, -0.46, -1.35, 0.32, -2.39, 1.48, 0.000, 0.000, 0.000, 0, 0, 0, 0, 0, 0, 0, 0, 0, 0, 1774154180173, 0, 04:36:20.173
122, -2.17, 0.03, -0.26, -1.39, -0.88, 0.28, -1.60, 1.58, 0.000, 0.000, 0.000, 0, 0, 0, 0, 0, 0, 0, 0, 0, 0, 1774154180177, 0, 04:36:20.177
123, -2.00, -0.11, 0.58, -1.96, -0.23, 0.35, -0.60, 1.29, 0.000, 0.000, 0.000, 0, 0, 0, 0, 0, 0, 0, 0, 0, 0, 1774154180181, 0, 04:36:20.181
124, -1.36, -0.57, 1.37, -2.31, 0.12, 0.76, 0.34, 0.66, 0.000, 0.000, 0.000, 0, 0, 0, 0, 0, 0, 0, 0, 0, 0, 1774154180185, 0, 04:36:20.185
125, -0.50, -0.86, 1.86, -2.19, 0.23, 1.05, 1.38, -0.16, 0.000, 0.000, 0.000, 0, 0, 0, 0, 0, 0, 0, 0, 0, 0, 1774154180189, 0, 04:36:20.189
126, 0.55, -0.89, 1.90, -1.63, 0.10, 1.30, 2.14, -0.97, 0.000, 0.000, 0.000, 0, 0, 0, 0, 0, 0, 0, 0, 0, 0, 1774154180193, 0, 04:36:20.193
127, 1.61, -0.69, 1.71, -0.99, -0.19, 1.40, 2.46, -1.74, 0.000, 0.000, 0.000, 0, 0, 0, 0, 0, 0, 0, 0, 0, 0, 1774154180197, 0, 04:36:20.197
128, 2.29, -0.28, 1.27, -0.08, -0.59, 1.10, 2.43, -2.21, 0.000, 0.000, 0.000, 0, 0, 0, 0, 0, 0, 0, 0, 0, 0, 1774154180201, 0, 04:36:20.201
129, 2.78, 0.43, 0.83, 0.44, -0.83, 0.55, 2.05, -2.30, 0.000, 0.000, 0.000, 0, 0, 0, 0, 0, 0, 0, 0, 0, 0, 1774154180205, 0, 04:36:20.205
130, 2.82, 1.20, 0.58, 0.89, -0.81, -0.17, 1.50, -1.92, 0.000, 0.000, 0.000, 0, 0, 0, 0, 0, 0, 0, 0, 0, 0, 1774154180209, 0, 04:36:20.209
131, 2.44, 2.07, 0.33, 1.10, -0.67, -0.96, 0.87, -1.19, 0.000, 0.000, 0.000, 0, 0, 0, 0, 0, 0, 0, 0, 0, 0, 1774154180213, 0, 04:36:20.213
132, 1.88, 2.82, 0.35, 0.93, -0.18, -1.76, 0.29, -0.33, 0.000, 0.000, 0.000, 0, 0, 0, 0, 0, 0, 0, 0, 0, 0, 1774154180217, 0, 04:36:20.217
133, 1.18, 3.12, 0.66, 0.60, 0.56, -2.22, -0.05, 0.56, 0.000, 0.000, 0.000, 0, 0, 0, 0, 0, 0, 0, 0, 0, 0, 1774154180221, 0, 04:36:20.221
134, 0.40, 2.98, 0.98, 0.45, 1.25, -2.25, -0.14, 1.37, 0.000, 0.000, 0.000, 0, 0, 0, 0, 0, 0, 0, 0, 0, 0, 1774154180225, 0, 04:36:20.225
135, -0.13, 2.52, 1.35, 0.09, 1.83, -1.89, -0.04, 1.92, 0.000, 0.000, 0.000, 0, 0, 0, 0, 0, 0, 0, 0, 0, 0, 1774154180229, 0, 04:36:20.229
136, -0.37, 1.69, 1.62, 0.13, 2.23, -1.18, 0.40, 2.04, 0.000, 0.000, 0.000, 0, 0, 0, 0, 0, 0, 0, 0, 0, 0, 1774154180233, 0, 04:36:20.233
137, -0.36, 0.74, 1.42, 0.38, 2.28, -0.41, 0.64, 1.87, 0.000, 0.000, 0.000, 0, 0, 0, 0, 0, 0, 0, 0, 0, 0, 1774154180237, 0, 04:36:20.237
138, -0.21, -0.27, 1.04, 0.91, 1.78, 0.56, 0.94, 1.51, 0.000, 0.000, 0.000, 0, 0, 0, 0, 0, 0, 0, 0, 0, 0, 1774154180241, 0, 04:36:20.241
139, 0.17, -0.99, 0.19, 1.49, 1.04, 1.42, 0.93, 1.01, 0.000, 0.000, 0.000, 0, 0, 0, 0, 0, 0, 0, 0, 0, 0, 1774154180245, 0, 04:36:20.245
140, 0.37, -1.52, -0.75, 2.00, 0.00, 1.96, 0.54, 0.63, 0.000, 0.000, 0.000, 0, 0, 0, 0, 0, 0, 0, 0, 0, 0, 1774154180249, 0, 04:36:20.249
141, 0.42, -1.65, -1.68, 2.40, -0.81, 1.96, 0.02, 0.38, 0.000, 0.000, 0.000, 0, 0, 0, 0, 0, 0, 0, 0, 0, 0, 1774154180253, 0, 04:36:20.253
142, 0.27, -1.42, -2.62, 2.46, -1.57, 1.76, -0.52, 0.35, 0.000, 0.000, 0.000, 0, 0, 0, 0, 0, 0, 0, 0, 0, 0, 1774154180257, 0, 04:36:20.257
143, -0.19, -1.14, -2.94, 2.17, -2.04, 1.33, -1.28, 0.68, 0.000, 0.000, 0.000, 0, 0, 0, 0, 0, 0, 0, 0, 0, 0, 1774154180261, 0, 04:36:20.261
144, -0.74, -0.54, -3.00, 1.38, -2.05, 0.68, -1.80, 1.04, 0.000, 0.000, 0.000, 0, 0, 0, 0, 0, 0, 0, 0, 0, 0, 1774154180265, 0, 04:36:20.265
145, -1.34, -0.33, -2.56, 0.57, -1.74, 0.09, -1.86, 1.37, 0.000, 0.000, 0.000, 0, 0, 0, 0, 0, 0, 0, 0, 0, 0, 1774154180269, 0, 04:36:20.269
146, -1.80, -0.22, -1.87, -0.63, -1.22, -0.26, -1.72, 1.64, 0.000, 0.000, 0.000, 0, 0, 0, 0, 0, 0, 0, 0, 0, 0, 1774154180273, 0, 04:36:20.273
147, -2.00, -0.33, -1.07, -1.58, -0.45, -0.35, -1.18, 1.48, 0.000, 0.000, 0.000, 0, 0, 0, 0, 0, 0, 0, 0, 0, 0, 1774154180277, 0, 04:36:20.277
148, -2.04, -0.59, -0.04, -2.36, 0.24, -0.38, -0.22, 1.03, 0.000, 0.000, 0.000, 0, 0, 0, 0, 0, 0, 0, 0, 0, 0, 1774154180281, 0, 04:36:20.281
149, -1.47, -1.05, 0.65, -2.73, 0.63, 0.04, 0.66, 0.36, 0.000, 0.000, 0.000, 0, 0, 0, 0, 0, 0, 0, 0, 0, 0, 1774154180285, 0, 04:36:20.285
150, -0.76, -1.53, 1.10, -2.66, 0.81, 0.30, 1.59, -0.59, 0.000, 0.000, 0.000, 0, 0, 0, 0, 0, 0, 0, 0, 0, 0, 1774154180289, 0, 04:36:20.289
151, 0.25, -1.56, 1.32, -2.26, 0.78, 0.62, 2.16, -1.47, 0.000, 0.000, 0.000, 0, 0, 0, 0, 0, 0, 0, 0, 0, 0, 1774154180293, 0, 04:36:20.293
152, 1.14, -1.52, 1.17, -1.59, 0.57, 0.74, 2.49, -2.35, 0.000, 0.000, 0.000, 0, 0, 0, 0, 0, 0, 0, 0, 0, 0, 1774154180297, 0, 04:36:20.297
153, 1.78, -1.05, 0.94, -0.91, 0.15, 0.47, 2.33, -2.79, 0.000, 0.000, 0.000, 0, 0, 0, 0, 0, 0, 0, 0, 0, 0, 1774154180301, 0, 04:36:20.301
154, 2.29, -0.38, 0.52, -0.20, -0.00, -0.04, 1.72, -2.92, 0.000, 0.000, 0.000, 0, 0, 0, 0, 0, 0, 0, 0, 0, 0, 1774154180305, 0, 04:36:20.305
155, 2.20, 0.60, 0.25, 0.14, -0.11, -0.67, 1.16, -2.71, 0.000, 0.000, 0.000, 0, 0, 0, 0, 0, 0, 0, 0, 0, 0, 1774154180309, 0, 04:36:20.309
156, 1.82, 1.44, 0.23, 0.28, 0.16, -1.45, 0.37, -2.04, 0.000, 0.000, 0.000, 0, 0, 0, 0, 0, 0, 0, 0, 0, 0, 1774154180313, 0, 04:36:20.313
157, 1.13, 2.18, 0.42, 0.20, 0.59, -2.03, -0.19, -1.10, 0.000, 0.000, 0.000, 0, 0, 0, 0, 0, 0, 0, 0, 0, 0, 1774154180317, 0, 04:36:20.317
158, 0.36, 2.55, 0.80, 0.02, 1.24, -2.41, -0.66, -0.14, 0.000, 0.000, 0.000, 0, 0, 0, 0, 0, 0, 0, 0, 0, 0, 1774154180321, 0, 04:36:20.321
159, -0.32, 2.63, 1.33, -0.29, 2.01, -2.32, -0.78, 0.52, 0.000, 0.000, 0.000, 0, 0, 0, 0, 0, 0, 0, 0, 0, 0, 1774154180325, 0, 04:36:20.325
160, -0.88, 2.21, 1.74, -0.45, 2.40, -1.99, -0.72, 1.17, 0.000, 0.000, 0.000, 0, 0, 0, 0, 0, 0, 0, 0, 0, 0, 1774154180329, 0, 04:36:20.329
161, -1.10, 1.40, 1.99, -0.43, 2.73, -1.18, -0.44, 1.28, 0.000, 0.000, 0.000, 0, 0, 0, 0, 0, 0, 0, 0, 0, 0, 1774154180333, 0, 04:36:20.333
162, -1.04, 0.52, 2.00, -0.07, 2.65, -0.19, -0.08, 1.28, 0.000, 0.000, 0.000, 0, 0, 0, 0, 0, 0, 0, 0, 0, 0, 1774154180337, 0, 04:36:20.337
163, -0.70, -0.36, 1.55, 0.50, 2.07, 0.91, 0.12, 1.07, 0.000, 0.000, 0.000, 0, 0, 0, 0, 0, 0, 0, 0, 0, 0, 1774154180341, 0, 04:36:20.341
164, -0.39, -0.95, 0.86, 1.34, 1.11, 1.73, 0.20, 0.79, 0.000, 0.000, 0.000, 0, 0, 0, 0, 0, 0, 0, 0, 0, 0, 1774154180345, 0, 04:36:20.345
165, -0.09, -1.37, 0.06, 1.98, 0.06, 2.36, -0.14, 0.35, 0.000, 0.000, 0.000, 0, 0, 0, 0, 0, 0, 0, 0, 0, 0, 1774154180349, 0, 04:36:20.349
166, 0.23, -1.39, -0.86, 2.41, -0.96, 2.56, -0.67, 0.20, 0.000, 0.000, 0.000, 0, 0, 0, 0, 0, 0, 0, 0, 0, 0, 1774154180353, 0, 04:36:20.353
167, 0.11, -1.04, -1.70, 2.59, -1.78, 2.54, -1.26, 0.37, 0.000, 0.000, 0.000, 0, 0, 0, 0, 0, 0, 0, 0, 0, 0, 1774154180357, 0, 04:36:20.357
168, -0.12, -0.64, -2.18, 2.36, -2.32, 1.99, -1.75, 0.75, 0.000, 0.000, 0.000, 0, 0, 0, 0, 0, 0, 0, 0, 0, 0, 1774154180361, 0, 04:36:20.361
169, -0.62, -0.10, -2.15, 1.77, -2.55, 1.40, -2.18, 1.20, 0.000, 0.000, 0.000, 0, 0, 0, 0, 0, 0, 0, 0, 0, 0, 1774154180365, 0, 04:36:20.365
170, -1.15, 0.22, -1.84, 0.96, -2.31, 0.92, -2.24, 1.65, 0.000, 0.000, 0.000, 0, 0, 0, 0, 0, 0, 0, 0, 0, 0, 1774154180369, 0, 04:36:20.369
171, -1.53, 0.51, -1.20, -0.05, -1.81, 0.58, -1.84, 1.98, 0.000, 0.000, 0.000, 0, 0, 0, 0, 0, 0, 0, 0, 0, 0, 1774154180373, 0, 04:36:20.373
172, -1.59, 0.49, -0.39, -0.85, -1.15, 0.33, -1.24, 2.04, 0.000, 0.000, 0.000, 0, 0, 0, 0, 0, 0, 0, 0, 0, 0, 1774154180377, 0, 04:36:20.377
173, -1.38, 0.14, 0.48, -1.55, -0.45, 0.40, -0.34, 1.69, 0.000, 0.000, 0.000, 0, 0, 0, 0, 0, 0, 0, 0, 0, 0, 1774154180381, 0, 04:36:20.381
174, -0.91, -0.22, 1.14, -1.86, -0.16, 0.70, 0.80, 1.01, 0.000, 0.000, 0.000, 0, 0, 0, 0, 0, 0, 0, 0, 0, 0, 1774154180385, 0, 04:36:20.385
175, -0.05, -0.71, 1.49, -1.81, 0.02, 0.97, 1.83, 0.16, 0.000, 0.000, 0.000, 0, 0, 0, 0, 0, 0, 0, 0, 0, 0, 1774154180389, 0, 04:36:20.389
176, 0.99, -0.85, 1.58, -1.45, -0.05, 1.14, 2.54, -0.76, 0.000, 0.000, 0.000, 0, 0, 0, 0, 0, 0, 0, 0, 0, 0, 1774154180393, 0, 04:36:20.393
177, 1.86, -0.83, 1.34, -0.76, -0.20, 1.07, 2.83, -1.59, 0.000, 0.000, 0.000, 0, 0, 0, 0, 0, 0, 0, 0, 0, 0, 1774154180397, 0, 04:36:20.397
178, 2.67, -0.40, 0.88, -0.12, -0.52, 0.81, 2.91, -2.11, 0.000, 0.000, 0.000, 0, 0, 0, 0, 0, 0, 0, 0, 0, 0, 1774154180401, 0, 04:36:20.401
179, 3.04, 0.31, 0.47, 0.56, -0.75, 0.13, 2.46, -2.18, 0.000, 0.000, 0.000, 0, 0, 0, 0, 0, 0, 0, 0, 0, 0, 1774154180405, 0, 04:36:20.405
180, 3.04, 1.09, 0.11, 0.86, -0.70, -0.64, 1.84, -1.96, 0.000, 0.000, 0.000, 0, 0, 0, 0, 0, 0, 0, 0, 0, 0, 1774154180409, 0, 04:36:20.409
181, 2.56, 1.81, -0.08, 0.92, -0.42, -1.39, 1.13, -1.42, 0.000, 0.000, 0.000, 0, 0, 0, 0, 0, 0, 0, 0, 0, 0, 1774154180413, 0, 04:36:20.413
182, 1.82, 2.42, -0.05, 0.73, 0.19, -2.13, 0.43, -0.47, 0.000, 0.000, 0.000, 0, 0, 0, 0, 0, 0, 0, 0, 0, 0, 1774154180417, 0, 04:36:20.417
183, 0.95, 2.69, 0.29, 0.46, 1.05, -2.63, 0.10, 0.35, 0.000, 0.000, 0.000, 0, 0, 0, 0, 0, 0, 0, 0, 0, 0, 1774154180421, 0, 04:36:20.421
184, 0.19, 2.64, 0.67, -0.06, 1.73, -2.81, -0.01, 0.98, 0.000, 0.000, 0.000, 0, 0, 0, 0, 0, 0, 0, 0, 0, 0, 1774154180425, 0, 04:36:20.425
185, -0.39, 2.18, 1.00, -0.17, 2.35, -2.44, 0.10, 1.47, 0.000, 0.000, 0.000, 0, 0, 0, 0, 0, 0, 0, 0, 0, 0, 1774154180429, 0, 04:36:20.429
186, -0.72, 1.30, 1.30, -0.30, 2.68, -1.71, 0.34, 1.57, 0.000, 0.000, 0.000, 0, 0, 0, 0, 0, 0, 0, 0, 0, 0, 1774154180433, 0, 04:36:20.433
187, -0.67, 0.15, 1.19, -0.13, 2.63, -0.76, 0.59, 1.44, 0.000, 0.000, 0.000, 0, 0, 0, 0, 0, 0, 0, 0, 0, 0, 1774154180437, 0, 04:36:20.437
188, -0.53, -0.65, 0.90, 0.37, 2.30, 0.16, 0.63, 0.98, 0.000, 0.000, 0.000, 0, 0, 0, 0, 0, 0, 0, 0, 0, 0, 1774154180441, 0, 04:36:20.441
189, -0.35, -1.43, 0.15, 0.92, 1.54, 1.05, 0.62, 0.52, 0.000, 0.000, 0.000, 0, 0, 0, 0, 0, 0, 0, 0, 0, 0, 1774154180445, 0, 04:36:20.445
190, -0.05, -1.99, -0.76, 1.60, 0.54, 1.70, 0.22, 0.10, 0.000, 0.000, 0.000, 0, 0, 0, 0, 0, 0, 0, 0, 0, 0, 1774154180449, 0, 04:36:20.449
191, -0.01, -2.02, -1.66, 1.92, -0.34, 1.84, -0.27, -0.17, 0.000, 0.000, 0.000, 0, 0, 0, 0, 0, 0, 0, 0, 0, 0, 1774154180453, 0, 04:36:20.453
192, -0.17, -1.73, -2.38, 2.06, -1.18, 1.69, -0.99, -0.00, 0.000, 0.000, 0.000, 0, 0, 0, 0, 0, 0, 0, 0, 0, 0, 1774154180457, 0, 04:36:20.457
193, -0.55, -1.33, -2.83, 1.81, -1.62, 1.22, -1.78, 0.23, 0.000, 0.000, 0.000, 0, 0, 0, 0, 0, 0, 0, 0, 0, 0, 1774154180461, 0, 04:36:20.461
194, -1.09, -0.93, -2.84, 1.07, -1.75, 0.65, -2.23, 0.56, 0.000, 0.000, 0.000, 0, 0, 0, 0, 0, 0, 0, 0, 0, 0, 1774154180465, 0, 04:36:20.465
195, -1.74, -0.46, -2.37, 0.18, -1.52, 0.17, -2.39, 1.01, 0.000, 0.000, 0.000, 0, 0, 0, 0, 0, 0, 0, 0, 0, 0, 1774154180469, 0, 04:36:20.469
196, -2.14, -0.40, -1.57, -0.88, -1.05, -0.19, -2.14, 1.30, 0.000, 0.000, 0.000, 0, 0, 0, 0, 0, 0, 0, 0, 0, 0, 1774154180473, 0, 04:36:20.473
197, -2.44, -0.36, -0.72, -1.75, -0.38, -0.19, -1.67, 1.24, 0.000, 0.000, 0.000, 0, 0, 0, 0, 0, 0, 0, 0, 0, 0, 1774154180477, 0, 04:36:20.477
198, -2.22, -0.54, 0.31, -2.27, 0.24, -0.02, -0.83, 0.97, 0.000, 0.000, 0.000, 0, 0, 0, 0, 0, 0, 0, 0, 0, 0, 1774154180481, 0, 04:36:20.481
199, -1.56, -0.94, 1.11, -2.64, 0.57, 0.26, 0.26, 0.39, 0.000, 0.000, 0.000, 0, 0, 0, 0, 0, 0, 0, 0, 0, 0, 1774154180485, 0, 04:36:20.485
200, -0.82, -1.26, 1.61, -2.57, 0.74, 0.72, 1.04, -0.60, 0.000, 0.000, 0.000, 0, 0, 0, 0, 0, 0, 0, 0, 0, 0, 1774154180489, 0, 04:36:20.489
201, 0.24, -1.31, 1.76, -2.11, 0.54, 1.09, 1.84, -1.51, 0.000, 0.000, 0.000, 0, 0, 0, 0, 0, 0, 0, 0, 0, 0, 1774154180493, 0, 04:36:20.493
202, 1.17, -1.13, 1.64, -1.38, 0.31, 1.20, 2.17, -2.29, 0.000, 0.000, 0.000, 0, 0, 0, 0, 0, 0, 0, 0, 0, 0, 1774154180497, 0, 04:36:20.497
203, 1.98, -0.61, 1.41, -0.60, -0.09, 0.95, 2.12, -2.81, 0.000, 0.000, 0.000, 0, 0, 0, 0, 0, 0, 0, 0, 0, 0, 1774154180501, 0, 04:36:20.501
204, 2.41, 0.14, 0.97, 0.06, -0.46, 0.42, 1.62, -2.70, 0.000, 0.000, 0.000, 0, 0, 0, 0, 0, 0, 0, 0, 0, 0, 1774154180505, 0, 04:36:20.505
205, 2.45, 1.08, 0.62, 0.56, -0.51, -0.23, 1.03, -2.42, 0.000, 0.000, 0.000, 0, 0, 0, 0, 0, 0, 0, 0, 0, 0, 1774154180509, 0, 04:36:20.509
206, 2.09, 1.98, 0.54, 0.68, -0.27, -0.95, 0.37, -1.65, 0.000, 0.000, 0.000, 0, 0, 0, 0, 0, 0, 0, 0, 0, 0, 1774154180513, 0, 04:36:20.513
207, 1.54, 2.67, 0.67, 0.61, 0.07, -1.76, -0.29, -0.72, 0.000, 0.000, 0.000, 0, 0, 0, 0, 0, 0, 0, 0, 0, 0, 1774154180517, 0, 04:36:20.517
208, 0.74, 3.05, 0.97, 0.44, 0.71, -1.97, -0.54, 0.15, 0.000, 0.000, 0.000, 0, 0, 0, 0, 0, 0, 0, 0, 0, 0, 1774154180521, 0, 04:36:20.521
209, 0.12, 3.00, 1.40, 0.11, 1.43, -2.08, -0.64, 0.99, 0.000, 0.000, 0.000, 0, 0, 0, 0, 0, 0, 0, 0, 0, 0, 1774154180525, 0, 04:36:20.525
210, -0.36, 2.51, 1.87, 0.05, 2.07, -1.69, -0.49, 1.67, 0.000, 0.000, 0.000, 0, 0, 0, 0, 0, 0, 0, 0, 0, 0, 1774154180529, 0, 04:36:20.529
211, -0.62, 1.76, 1.99, 0.09, 2.20, -0.95, -0.11, 1.82, 0.000, 0.000, 0.000, 0, 0, 0, 0, 0, 0, 0, 0, 0, 0, 1774154180533, 0, 04:36:20.533
212, -0.58, 0.87, 1.84, 0.33, 2.14, 0.01, 0.25, 1.70, 0.000, 0.000, 0.000, 0, 0, 0, 0, 0, 0, 0, 0, 0, 0, 1774154180537, 0, 04:36:20.537
213, -0.26, -0.01, 1.44, 0.97, 1.63, 0.91, 0.54, 1.38, 0.000, 0.000, 0.000, 0, 0, 0, 0, 0, 0, 0, 0, 0, 0, 1774154180541, 0, 04:36:20.541
214, 0.08, -0.67, 0.68, 1.55, 0.77, 1.77, 0.52, 1.03, 0.000, 0.000, 0.000, 0, 0, 0, 0, 0, 0, 0, 0, 0, 0, 1774154180545, 0, 04:36:20.545
215, 0.47, -1.16, -0.37, 2.29, -0.19, 2.33, 0.30, 0.77, 0.000, 0.000, 0.000, 0, 0, 0, 0, 0, 0, 0, 0, 0, 0, 1774154180549, 0, 04:36:20.549
216, 0.50, -1.19, -1.26, 2.68, -1.21, 2.46, -0.21, 0.58, 0.000, 0.000, 0.000, 0, 0, 0, 0, 0, 0, 0, 0, 0, 0, 1774154180553, 0, 04:36:20.553
217, 0.48, -0.97, -2.03, 2.89, -2.00, 2.25, -0.83, 0.64, 0.000, 0.000, 0.000, 0, 0, 0, 0, 0, 0, 0, 0, 0, 0, 1774154180557, 0, 04:36:20.557
218, 0.05, -0.64, -2.55, 2.56, -2.54, 1.72, -1.36, 1.00, 0.000, 0.000, 0.000, 0, 0, 0, 0, 0, 0, 0, 0, 0, 0, 1774154180561, 0, 04:36:20.561
219, -0.45, -0.16, -2.57, 1.80, -2.54, 1.14, -1.81, 1.41, 0.000, 0.000, 0.000, 0, 0, 0, 0, 0, 0, 0, 0, 0, 0, 1774154180565, 0, 04:36:20.565
220, -0.89, 0.12, -2.30, 0.81, -2.21, 0.55, -1.82, 1.76, 0.000, 0.000, 0.000, 0, 0, 0, 0, 0, 0, 0, 0, 0, 0, 1774154180569, 0, 04:36:20.569
221, -1.38, 0.31, -1.65, -0.18, -1.68, 0.10, -1.54, 2.10, 0.000, 0.000, 0.000, 0, 0, 0, 0, 0, 0, 0, 0, 0, 0, 1774154180573, 0, 04:36:20.573
222, -1.67, 0.14, -0.75, -1.18, -0.93, -0.14, -0.95, 1.91, 0.000, 0.000, 0.000, 0, 0, 0, 0, 0, 0, 0, 0, 0, 0, 1774154180577, 0, 04:36:20.577
223, -1.57, -0.30, -0.00, -1.77, -0.30, -0.07, 0.00, 1.58, 0.000, 0.000, 0.000, 0, 0, 0, 0, 0, 0, 0, 0, 0, 0, 1774154180581, 0, 04:36:20.581
224, -1.15, -0.69, 0.66, -2.23, 0.16, 0.16, 0.96, 0.79, 0.000, 0.000, 0.000, 0, 0, 0, 0, 0, 0, 0, 0, 0, 0, 1774154180585, 0, 04:36:20.585
225, -0.25, -1.03, 1.11, -2.17, 0.37, 0.53, 1.83, -0.08, 0.000, 0.000, 0.000, 0, 0, 0, 0, 0, 0, 0, 0, 0, 0, 1774154180589, 0, 04:36:20.589
226, 0.82, -1.35, 1.12, -1.86, 0.35, 0.66, 2.54, -1.12, 0.000, 0.000, 0.000, 0, 0, 0, 0, 0, 0, 0, 0, 0, 0, 1774154180593, 0, 04:36:20.593
227, 1.62, -1.26, 0.96, -1.26, 0.10, 0.59, 2.85, -1.95, 0.000, 0.000, 0.000, 0, 0, 0, 0, 0, 0, 0, 0, 0, 0, 1774154180597, 0, 04:36:20.597
228, 2.27, -0.87, 0.54, -0.60, -0.11, 0.27, 2.75, -2.43, 0.000, 0.000, 0.000, 0, 0, 0, 0, 0, 0, 0, 0, 0, 0, 1774154180601, 0, 04:36:20.601
229, 2.66, -0.28, 0.17, 0.02, -0.27, -0.26, 2.26, -2.67, 0.000, 0.000, 0.000, 0, 0, 0, 0, 0, 0, 0, 0, 0, 0, 1774154180605, 0, 04:36:20.605
230, 2.50, 0.62, -0.19, 0.33, -0.17, -1.01, 1.59, -2.45, 0.000, 0.000, 0.000, 0, 0, 0, 0, 0, 0, 0, 0, 0, 0, 1774154180609, 0, 04:36:20.609
231, 2.11, 1.34, -0.29, 0.34, 0.06, -1.77, 0.73, -1.92, 0.000, 0.000, 0.000, 0, 0, 0, 0, 0, 0, 0, 0, 0, 0, 1774154180613, 0, 04:36:20.613
232, 1.40, 2.02, -0.09, 0.29, 0.54, -2.50, 0.09, -1.06, 0.000, 0.000, 0.000, 0, 0, 0, 0, 0, 0, 0, 0, 0, 0, 1774154180617, 0, 04:36:20.617
233, 0.54, 2.41, 0.26, -0.12, 1.23, -2.80, -0.27, -0.26, 0.000, 0.000, 0.000, 0, 0, 0, 0, 0, 0, 0, 0, 0, 0, 1774154180621, 0, 04:36:20.621
234, -0.22, 2.29, 0.66, -0.48, 2.03, -2.93, -0.62, 0.57, 0.000, 0.000, 0.000, 0, 0, 0, 0, 0, 0, 0, 0, 0, 0, 1774154180625, 0, 04:36:20.625
235, -0.84, 1.77, 1.13, -0.81, 2.67, -2.52, -0.48, 1.04, 0.000, 0.000, 0.000, 0, 0, 0, 0, 0, 0, 0, 0, 0, 0, 1774154180629, 0, 04:36:20.629
236, -1.14, 1.03, 1.42, -0.63, 2.93, -1.68, -0.28, 1.14, 0.000, 0.000, 0.000, 0, 0, 0, 0, 0, 0, 0, 0, 0, 0, 1774154180633, 0, 04:36:20.633
237, -1.23, 0.08, 1.41, -0.37, 2.88, -0.72, 0.01, 1.08, 0.000, 0.000, 0.000, 0, 0, 0, 0, 0, 0, 0, 0, 0, 0, 1774154180637, 0, 04:36:20.637
238, -0.93, -0.81, 1.12, 0.16, 2.35, 0.30, 0.14, 0.72, 0.000, 0.000, 0.000, 0, 0, 0, 0, 0, 0, 0, 0, 0, 0, 1774154180641, 0, 04:36:20.641
239, -0.57, -1.47, 0.45, 0.80, 1.57, 1.23, 0.12, 0.23, 0.000, 0.000, 0.000, 0, 0, 0, 0, 0, 0, 0, 0, 0, 0, 1774154180645, 0, 04:36:20.645
240, -0.40, -1.90, -0.35, 1.44, 0.44, 1.85, -0.24, -0.09, 0.000, 0.000, 0.000, 0, 0, 0, 0, 0, 0, 0, 0, 0, 0, 1774154180649, 0, 04:36:20.649
241, -0.26, -1.88, -1.22, 1.91, -0.44, 2.14, -0.87, -0.29, 0.000, 0.000, 0.000, 0, 0, 0, 0, 0, 0, 0, 0, 0, 0, 1774154180653, 0, 04:36:20.653
242, -0.25, -1.61, -1.90, 2.10, -1.43, 2.00, -1.51, -0.17, 0.000, 0.000, 0.000, 0, 0, 0, 0, 0, 0, 0, 0, 0, 0, 1774154180657, 0, 04:36:20.657
243, -0.65, -1.18, -2.32, 1.89, -1.89, 1.63, -2.12, 0.13, 0.000, 0.000, 0.000, 0, 0, 0, 0, 0, 0, 0, 0, 0, 0, 1774154180661, 0, 04:36:20.661
244, -1.07, -0.62, -2.33, 1.26, -2.10, 1.14, -2.53, 0.63, 0.000, 0.000, 0.000, 0, 0, 0, 0, 0, 0, 0, 0, 0, 0, 1774154180665, 0, 04:36:20.665
245, -1.68, -0.06, -1.87, 0.47, -1.90, 0.69, -2.56, 1.12, 0.000, 0.000, 0.000, 0, 0, 0, 0, 0, 0, 0, 0, 0, 0, 1774154180669, 0, 04:36:20.669
246, -1.99, 0.10, -1.15, -0.54, -1.45, 0.38, -2.35, 1.36, 0.000, 0.000, 0.000, 0, 0, 0, 0, 0, 0, 0, 0, 0, 0, 1774154180673, 0, 04:36:20.673
247, -2.18, 0.00, -0.26, -1.43, -0.84, 0.21, -1.77, 1.51, 0.000, 0.000, 0.000, 0, 0, 0, 0, 0, 0, 0, 0, 0, 0, 1774154180677, 0, 04:36:20.677
248, -1.95, -0.24, 0.68, -2.02, -0.29, 0.36, -0.79, 1.24, 0.000, 0.000, 0.000, 0, 0, 0, 0, 0, 0, 0, 0, 0, 0, 1774154180681, 0, 04:36:20.681
249, -1.30, -0.51, 1.24, -2.35, 0.11, 0.65, 0.28, 0.59, 0.000, 0.000, 0.000, 0, 0, 0, 0, 0, 0, 0, 0, 0, 0, 1774154180685, 0, 04:36:20.685
250, -0.50, -0.73, 1.78, -2.13, 0.24, 1.04, 1.22, -0.35, 0.000, 0.000, 0.000, 0, 0, 0, 0, 0, 0, 0, 0, 0, 0, 1774154180689, 0, 04:36:20.689
251, 0.52, -0.94, 1.88, -1.74, 0.06, 1.29, 2.00, -1.10, 0.000, 0.000, 0.000, 0, 0, 0, 0, 0, 0, 0, 0, 0, 0, 1774154180693, 0, 04:36:20.693
252, 1.56, -0.72, 1.74, -1.01, -0.18, 1.37, 2.25, -1.90, 0.000, 0.000, 0.000, 0, 0, 0, 0, 0, 0, 0, 0, 0, 0, 1774154180697, 0, 04:36:20.697
253, 2.41, -0.30, 1.36, -0.30, -0.62, 0.96, 2.36, -2.32, 0.000, 0.000, 0.000, 0, 0, 0, 0, 0, 0, 0, 0, 0, 0, 1774154180701, 0, 04:36:20.701
254, 2.77, 0.43, 0.76, 0.45, -0.84, 0.49, 1.94, -2.30, 0.000, 0.000, 0.000, 0, 0, 0, 0, 0, 0, 0, 0, 0, 0, 1774154180705, 0, 04:36:20.705
255, 2.92, 1.22, 0.53, 0.96, -0.92, -0.25, 1.37, -2.14, 0.000, 0.000, 0.000, 0, 0, 0, 0, 0, 0, 0, 0, 0, 0, 1774154180709, 0, 04:36:20.709
0, 2.52, 2.18, 0.23, 1.02, -0.73, -1.09, 0.79, -1.39, 0.000, 0.000, 0.000, 0, 0, 0, 0, 0, 0, 0, 0, 0, 0, 1774154180713, 0, 04:36:20.713
1, 1.96, 2.77, 0.30, 0.93, -0.20, -1.85, 0.10, -0.42, 0.000, 0.000, 0.000, 0, 0, 0, 0, 0, 0, 0, 0, 0, 0, 1774154180717, 0, 04:36:20.717
2, 1.02, 3.14, 0.62, 0.72, 0.51, -2.32, -0.16, 0.42, 0.000, 0.000, 0.000, 0, 0, 0, 0, 0, 0, 0, 0, 0, 0, 1774154180721, 0, 04:36:20.721
3, 0.36, 2.96, 0.99, 0.31, 1.22, -2.30, -0.21, 1.20, 0.000, 0.000, 0.000, 0, 0, 0, 0, 0, 0, 0, 0, 0, 0, 1774154180725, 0, 04:36:20.725
4, -0.24, 2.49, 1.27, 0.03, 1.85, -2.05, -0.07, 1.83, 0.000, 0.000, 0.000, 0, 0, 0, 0, 0, 0, 0, 0, 0, 0, 1774154180729, 0, 04:36:20.729
5, -0.49, 1.66, 1.53, 0.03, 2.20, -1.43, 0.17, 1.91, 0.000, 0.000, 0.000, 0, 0, 0, 0, 0, 0, 0, 0, 0, 0, 1774154180733, 0, 04:36:20.733
6, -0.44, 0.65, 1.40, 0.32, 2.12, -0.42, 0.65, 1.78, 0.000, 0.000, 0.000, 0, 0, 0, 0, 0, 0, 0, 0, 0, 0, 1774154180737, 0, 04:36:20.737
7, -0.24, -0.30, 0.94, 0.77, 1.55, 0.49, 0.79, 1.38, 0.000, 0.000, 0.000, 0, 0, 0, 0, 0, 0, 0, 0, 0, 0, 1774154180741, 0, 04:36:20.741
8, 0.06, -1.11, 0.11, 1.37, 1.02, 1.25, 0.75, 0.90, 0.000, 0.000, 0.000, 0, 0, 0, 0, 0, 0, 0, 0, 0, 0, 1774154180745, 0, 04:36:20.745
9, 0.33, -1.60, -0.82, 2.00, -0.01, 1.71, 0.46, 0.55, 0.000, 0.000, 0.000, 0, 0, 0, 0, 0, 0, 0, 0, 0, 0, 1774154180749, 0, 04:36:20.749
10, 0.43, -1.62, -1.78, 2.38, -0.96, 1.89, -0.09, 0.36, 0.000, 0.000, 0.000, 0, 0, 0, 0, 0, 0, 0, 0, 0, 0, 1774154180753, 0, 04:36:20.753
11, 0.21, -1.47, -2.48, 2.30, -1.73, 1.74, -0.80, 0.21, 0.000, 0.000, 0.000, 0, 0, 0, 0, 0, 0, 0, 0, 0, 0, 1774154180757, 0, 04:36:20.757
12, -0.12, -1.19, -3.16, 2.01, -2.13, 1.12, -1.39, 0.52, 0.000, 0.000, 0.000, 0, 0, 0, 0, 0, 0, 0, 0, 0, 0, 1774154180761, 0, 04:36:20.761
13, -0.71, -0.71, -3.12, 1.32, -2.19, 0.51, -1.90, 0.89, 0.000, 0.000, 0.000, 0, 0, 0, 0, 0, 0, 0, 0, 0, 0, 1774154180765, 0, 04:36:20.765
14, -1.36, -0.45, -2.71, 0.41, -1.89, -0.02, -2.00, 1.23, 0.000, 0.000, 0.000, 0, 0, 0, 0, 0, 0, 0, 0, 0, 0, 1774154180769, 0, 04:36:20.769
15, -1.86, -0.35, -2.05, -0.64, -1.31, -0.39, -1.78, 1.50, 0.000, 0.000, 0.000, 0, 0, 0, 0, 0, 0, 0, 0, 0, 0, 1774154180773, 0, 04:36:20.773
16, -2.12, -0.37, -1.11, -1.55, -0.55, -0.57, -1.15, 1.39, 0.000, 0.000, 0.000, 0, 0, 0, 0, 0, 0, 0, 0, 0, 0, 1774154180777, 0, 04:36:20.777
17, -1.93, -0.83, -0.19, -2.43, 0.16, -0.41, -0.39, 1.06, 0.000, 0.000, 0.000, 0, 0, 0, 0, 0, 0, 0, 0, 0, 0, 1774154180781, 0, 04:36:20.781
18, -1.55, -1.12, 0.54, -2.79, 0.57, -0.10, 0.54, 0.31, 0.000, 0.000, 0.000, 0, 0, 0, 0, 0, 0, 0, 0, 0, 0, 1774154180785, 0, 04:36:20.785
19, -0.79, -1.54, 1.06, -2.69, 0.79, 0.21, 1.37, -0.60, 0.000, 0.000, 0.000, 0, 0, 0, 0, 0, 0, 0, 0, 0, 0, 1774154180789, 0, 04:36:20.789
20, 0.13, -1.71, 1.24, -2.35, 0.65, 0.50, 2.17, -1.68, 0.000, 0.000, 0.000, 0, 0, 0, 0, 0, 0, 0, 0, 0, 0, 1774154180793, 0, 04:36:20.793
21, 1.03, -1.57, 1.07, -1.69, 0.42, 0.55, 2.35, -2.49, 0.000, 0.000, 0.000, 0, 0, 0, 0, 0, 0, 0, 0, 0, 0, 1774154180797, 0, 04:36:20.797
22, 1.74, -1.11, 0.75, -0.99, 0.11, 0.33, 2.15, -3.02, 0.000, 0.000, 0.000, 0, 0, 0, 0, 0, 0, 0, 0, 0, 0, 1774154180801, 0, 04:36:20.801
23, 2.14, -0.44, 0.40, -0.47, -0.18, -0.22, 1.78, -3.05, 0.000, 0.000, 0.000, 0, 0, 0, 0, 0, 0, 0, 0, 0, 0, 1774154180805, 0, 04:36:20.805
24, 2.16, 0.52, 0.14, 0.07, -0.22, -0.89, 1.06, -2.86, 0.000, 0.000, 0.000, 0, 0, 0, 0, 0, 0, 0, 0, 0, 0, 1774154180809, 0, 04:36:20.809
25, 1.78, 1.38, 0.00, 0.20, 0.06, -1.64, 0.18, -2.20, 0.000, 0.000, 0.000, 0, 0, 0, 0, 0, 0, 0, 0, 0, 0, 1774154180813, 0, 04:36:20.813
26, 1.10, 2.03, 0.29, 0.17, 0.54, -2.20, -0.44, -1.32, 0.000, 0.000, 0.000, 0, 0, 0, 0, 0, 0, 0, 0, 0, 0, 1774154180817, 0, 04:36:20.817
27, 0.28, 2.46, 0.64, -0.15, 1.14, -2.53, -0.83, -0.21, 0.000, 0.000, 0.000, 0, 0, 0, 0, 0, 0, 0, 0, 0, 0, 1774154180821, 0, 04:36:20.821
28, -0.38, 2.51, 1.21, -0.48, 1.75, -2.57, -1.01, 0.46, 0.000, 0.000, 0.000, 0, 0, 0, 0, 0, 0, 0, 0, 0, 0, 1774154180825, 0, 04:36:20.825
29, -0.92, 2.10, 1.63, -0.58, 2.32, -2.06, -0.84, 1.04, 0.000, 0.000, 0.000, 0, 0, 0, 0, 0, 0, 0, 0, 0, 0, 1774154180829, 0, 04:36:20.829
30, -1.20, 1.33, 1.92, -0.59, 2.51, -1.31, -0.51, 1.18, 0.000, 0.000, 0.000, 0, 0, 0, 0, 0, 0, 0, 0, 0, 0, 1774154180833, 0, 04:36:20.833
31, -1.17, 0.35, 1.78, -0.20, 2.44, -0.32, -0.29, 1.20, 0.000, 0.000, 0.000, 0, 0, 0, 0, 0, 0, 0, 0, 0, 0, 1774154180837, 0, 04:36:20.837
32, -0.83, -0.42, 1.42, 0.47, 1.91, 0.74, 0.00, 0.78, 0.000, 0.000, 0.000, 0, 0, 0, 0, 0, 0, 0, 0, 0, 0, 1774154180841, 0, 04:36:20.841
33, -0.46, -1.07, 0.68, 1.13, 1.02, 1.60, 0.04, 0.45, 0.000, 0.000, 0.000, 0, 0, 0, 0, 0, 0, 0, 0, 0, 0, 1774154180845, 0, 04:36:20.845
34, -0.18, -1.43, -0.18, 1.87, -0.00, 2.28, -0.26, 0.17, 0.000, 0.000, 0.000, 0, 0, 0, 0, 0, 0, 0, 0, 0, 0, 1774154180849, 0, 04:36:20.849
35, 0.08, -1.44, -1.00, 2.22, -1.04, 2.46, -0.77, 0.11, 0.000, 0.000, 0.000, 0, 0, 0, 0, 0, 0, 0, 0, 0, 0, 1774154180853, 0, 04:36:20.853
36, 0.04, -1.18, -1.75, 2.47, -1.92, 2.36, -1.41, 0.20, 0.000, 0.000, 0.000, 0, 0, 0, 0, 0, 0, 0, 0, 0, 0, 1774154180857, 0, 04:36:20.857
37, -0.31, -0.73, -2.34, 2.24, -2.53, 1.87, -1.91, 0.66, 0.000, 0.000, 0.000, 0, 0, 0, 0, 0, 0, 0, 0, 0, 0, 1774154180861, 0, 04:36:20.861
38, -0.73, -0.25, -2.37, 1.72, -2.64, 1.30, -2.38, 1.10, 0.000, 0.000, 0.000, 0, 0, 0, 0, 0, 0, 0, 0, 0, 0, 1774154180865, 0, 04:36:20.865
39, -1.32, 0.09, -2.01, 0.84, -2.39, 0.85, -2.37, 1.51, 0.000, 0.000, 0.000, 0, 0, 0, 0, 0, 0, 0, 0, 0, 0, 1774154180869, 0, 04:36:20.869
40, -1.59, 0.37, -1.32, -0.15, -1.84, 0.28, -2.05, 1.89, 0.000, 0.000, 0.000, 0, 0, 0, 0, 0, 0, 0, 0, 0, 0, 1774154180873, 0, 04:36:20.873
41, -1.73, 0.29, -0.59, -1.01, -1.30, 0.24, -1.30, 1.85, 0.000, 0.000, 0.000, 0, 0, 0, 0, 0, 0, 0, 0, 0, 0, 1774154180877, 0, 04:36:20.877
42, -1.60, 0.01, 0.26, -1.77, -0.66, 0.33, -0.41, 1.51, 0.000, 0.000, 0.000, 0, 0, 0, 0, 0, 0, 0, 0, 0, 0, 1774154180881, 0, 04:36:20.881
43, -1.00, -0.48, 1.03, -2.00, -0.22, 0.53, 0.66, 0.94, 0.000, 0.000, 0.000, 0, 0, 0, 0, 0, 0, 0, 0, 0, 0, 1774154180885, 0, 04:36:20.885
44, -0.29, -0.76, 1.29, -2.04, -0.09, 0.76, 1.61, -0.08, 0.000, 0.000, 0.000, 0, 0, 0, 0, 0, 0, 0, 0, 0, 0, 1774154180889, 0, 04:36:20.889
45, 0.77, -0.89, 1.42, -1.62, -0.09, 1.04, 2.42, -0.86, 0.000, 0.000, 0.000, 0, 0, 0, 0, 0, 0, 0, 0, 0, 0, 1774154180893, 0, 04:36:20.893
46, 1.77, -0.91, 1.20, -0.90, -0.32, 0.93, 2.73, -1.73, 0.000, 0.000, 0.000, 0, 0, 0, 0, 0, 0, 0, 0, 0, 0, 1774154180897, 0, 04:36:20.897
47, 2.48, -0.52, 0.78, -0.32, -0.60, 0.60, 2.66, -2.26, 0.000, 0.000, 0.000, 0, 0, 0, 0, 0, 0, 0, 0, 0, 0, 1774154180901, 0, 04:36:20.901
48, 2.96, 0.16, 0.28, 0.36, -0.84, 0.02, 2.26, -2.28, 0.000, 0.000, 0.000, 0, 0, 0, 0, 0, 0, 0, 0, 0, 0, 1774154180905, 0, 04:36:20.905
49, 2.99, 1.05, -0.11, 0.69, -0.73, -0.79, 1.69, -2.13, 0.000, 0.000, 0.000, 0, 0, 0, 0, 0, 0, 0, 0, 0, 0, 1774154180909, 0, 04:36:20.909
50, 2.42, 1.70, -0.23, 0.81, -0.57, -1.66, 0.90, -1.45, 0.000, 0.000, 0.000, 0, 0, 0, 0, 0, 0, 0, 0, 0, 0, 1774154180913, 0, 04:36:20.913
51, 1.73, 2.36, -0.17, 0.57, 0.13, -2.30, 0.29, -0.66, 0.000, 0.000, 0.000, 0, 0, 0, 0, 0, 0, 0, 0, 0, 0, 1774154180917, 0, 04:36:20.917
52, 0.93, 2.58, 0.08, 0.23, 0.81, -2.84, -0.02, 0.20, 0.000, 0.000, 0.000, 0, 0, 0, 0, 0, 0, 0, 0, 0, 0, 1774154180921, 0, 04:36:20.921
53, 0.19, 2.45, 0.53, -0.12, 1.62, -2.88, -0.21, 0.88, 0.000, 0.000, 0.000, 0, 0, 0, 0, 0, 0, 0, 0, 0, 0, 1774154180925, 0, 04:36:20.925
54, -0.56, 1.94, 0.93, -0.44, 2.18, -2.61, -0.06, 1.32, 0.000, 0.000, 0.000, 0, 0, 0, 0, 0, 0, 0, 0, 0, 0, 1774154180929, 0, 04:36:20.929
55, -0.83, 1.16, 1.20, -0.48, 2.60, -1.84, 0.13, 1.52, 0.000, 0.000, 0.000, 0, 0, 0, 0, 0, 0, 0, 0, 0, 0, 1774154180933, 0, 04:36:20.933
56, -0.81, 0.19, 1.07, -0.19, 2.60, -0.97, 0.41, 1.30, 0.000, 0.000, 0.000, 0, 0, 0, 0, 0, 0, 0, 0, 0, 0, 1774154180937, 0, 04:36:20.937
57, -0.80, -0.84, 0.69, 0.25, 2.06, 0.01, 0.56, 0.83, 0.000, 0.000, 0.000, 0, 0, 0, 0, 0, 0, 0, 0, 0, 0, 1774154180941, 0, 04:36:20.941
58, -0.51, -1.64, -0.10, 0.83, 1.35, 0.90, 0.53, 0.32, 0.000, 0.000, 0.000, 0, 0, 0, 0, 0, 0, 0, 0, 0, 0, 1774154180945, 0, 04:36:20.945
59, -0.23, -1.95, -0.97, 1.42, 0.31, 1.51, 0.17, -0.06, 0.000, 0.000, 0.000, 0, 0, 0, 0, 0, 0, 0, 0, 0, 0, 1774154180949, 0, 04:36:20.949
60, -0.16, -2.17, -1.84, 1.89, -0.56, 1.69, -0.43, -0.20, 0.000, 0.000, 0.000, 0, 0, 0, 0, 0, 0, 0, 0, 0, 0, 1774154180953, 0, 04:36:20.953
61, -0.26, -1.95, -2.55, 1.87, -1.38, 1.55, -1.23, -0.16, 0.000, 0.000, 0.000, 0, 0, 0, 0, 0, 0, 0, 0, 0, 0, 1774154180957, 0, 04:36:20.957
62, -0.69, -1.58, -2.98, 1.58, -1.83, 1.11, -1.93, 0.07, 0.000, 0.000, 0.000, 0, 0, 0, 0, 0, 0, 0, 0, 0, 0, 1774154180961, 0, 04:36:20.961
63, -1.35, -0.95, -2.86, 0.87, -1.78, 0.56, -2.35, 0.37, 0.000, 0.000, 0.000, 0, 0, 0, 0, 0, 0, 0, 0, 0, 0, 1774154180965, 0, 04:36:20.965
64, -1.84, -0.59, -2.44, 0.03, -1.59, 0.11, -2.49, 0.89, 0.000, 0.000, 0.000, 0, 0, 0, 0, 0, 0, 0, 0, 0, 0, 1774154180969, 0, 04:36:20.969
65, -2.36, -0.33, -1.74, -0.94, -1.22, -0.29, -2.28, 1.17, 0.000, 0.000, 0.000, 0, 0, 0, 0, 0, 0, 0, 0, 0, 0, 1774154180973, 0, 04:36:20.973
66, -2.47, -0.56, -0.74, -1.85, -0.50, -0.31, -1.74, 1.10, 0.000, 0.000, 0.000, 0, 0, 0, 0, 0, 0, 0, 0, 0, 0, 1774154180977, 0, 04:36:20.977
67, -2.40, -0.68, 0.19, -2.54, 0.08, -0.13, -0.84, 0.85, 0.000, 0.000, 0.000, 0, 0, 0, 0, 0, 0, 0, 0, 0, 0, 1774154180981, 0, 04:36:20.981
68, -1.86, -1.09, 1.00, -2.79, 0.42, 0.12, 0.14, 0.05, 0.000, 0.000, 0.000, 0, 0, 0, 0, 0, 0, 0, 0, 0, 0, 1774154180985, 0, 04:36:20.985
69, -0.96, -1.35, 1.40, -2.68, 0.58, 0.52, 1.02, -0.70, 0.000, 0.000, 0.000, 0, 0, 0, 0, 0, 0, 0, 0, 0, 0, 1774154180989, 0, 04:36:20.989
70, 0.06, -1.58, 1.63, -2.19, 0.45, 0.84, 1.69, -1.67, 0.000, 0.000, 0.000, 0, 0, 0, 0, 0, 0, 0, 0, 0, 0, 1774154180993, 0, 04:36:20.993
71, 1.03, -1.26, 1.50, -1.49, 0.05, 0.89, 2.00, -2.33, 0.000, 0.000, 0.000, 0, 0, 0, 0, 0, 0, 0, 0, 0, 0, 1774154180997, 0, 04:36:20.997
72, 1.72, -0.79, 1.20, -0.68, -0.31, 0.74, 1.89, -2.81, 0.000, 0.000, 0.000, 0, 0, 0, 0, 0, 0, 0, 0, 0, 0, 1774154181001, 0, 04:36:21.001
73, 2.28, -0.06, 0.75, -0.09, -0.55, 0.34, 1.48, -2.81, 0.000, 0.000, 0.000, 0, 0, 0, 0, 0, 0, 0, 0, 0, 0, 1774154181005, 0, 04:36:21.005
74, 2.26, 0.90, 0.37, 0.32, -0.64, -0.46, 0.85, -2.51, 0.000, 0.000, 0.000, 0, 0, 0, 0, 0, 0, 0, 0, 0, 0, 1774154181009, 0, 04:36:21.009
75, 1.99, 1.75, 0.33, 0.60, -0.50, -1.10, 0.12, -1.84, 0.000, 0.000, 0.000, 0, 0, 0, 0, 0, 0, 0, 0, 0, 0, 1774154181013, 0, 04:36:21.013
76, 1.30, 2.48, 0.52, 0.54, -0.05, -1.83, -0.37, -0.92, 0.000, 0.000, 0.000, 0, 0, 0, 0, 0, 0, 0, 0, 0, 0, 1774154181017, 0, 04:36:21.017
77, 0.65, 2.87, 0.85, 0.35, 0.61, -2.09, -0.72, 0.06, 0.000, 0.000, 0.000, 0, 0, 0, 0, 0, 0, 0, 0, 0, 0, 1774154181021, 0, 04:36:21.021
78, -0.10, 2.77, 1.36, 0.07, 1.32, -2.23, -0.75, 0.88, 0.000, 0.000, 0.000, 0, 0, 0, 0, 0, 0, 0, 0, 0, 0, 1774154181025, 0, 04:36:21.025
79, -0.63, 2.45, 1.69, -0.04, 1.82, -1.82, -0.54, 1.53, 0.000, 0.000, 0.000, 0, 0, 0, 0, 0, 0, 0, 0, 0, 0, 1774154181029, 0, 04:36:21.029
80, -0.75, 1.71, 1.86, -0.04, 2.16, -1.12, -0.19, 1.76, 0.000, 0.000, 0.000, 0, 0, 0, 0, 0, 0, 0, 0, 0, 0, 1774154181033, 0, 04:36:21.033
81, -0.71, 0.70, 1.74, 0.27, 1.94, -0.17, 0.19, 1.54, 0.000, 0.000, 0.000, 0, 0, 0, 0, 0, 0, 0, 0, 0, 0, 1774154181037, 0, 04:36:21.037
82, -0.47, -0.16, 1.34, 0.75, 1.48, 0.89, 0.34, 1.31, 0.000, 0.000, 0.000, 0, 0, 0, 0, 0, 0, 0, 0, 0, 0, 1774154181041, 0, 04:36:21.041
83, 0.01, -0.91, 0.49, 1.49, 0.64, 1.67, 0.34, 0.92, 0.000, 0.000, 0.000, 0, 0, 0, 0, 0, 0, 0, 0, 0, 0, 1774154181045, 0, 04:36:21.045
84, 0.25, -1.30, -0.44, 2.09, -0.31, 2.22, 0.21, 0.55, 0.000, 0.000, 0.000, 0, 0, 0, 0, 0, 0, 0, 0, 0, 0, 1774154181049, 0, 04:36:21.049
85, 0.43, -1.42, -1.46, 2.56, -1.36, 2.25, -0.24, 0.46, 0.000, 0.000, 0.000, 0, 0, 0, 0, 0, 0, 0, 0, 0, 0, 1774154181053, 0, 04:36:21.053
86, 0.35, -1.22, -2.16, 2.66, -2.03, 2.13, -0.84, 0.59, 0.000, 0.000, 0.000, 0, 0, 0, 0, 0, 0, 0, 0, 0, 0, 1774154181057, 0, 04:36:21.057
87, -0.04, -0.73, -2.71, 2.39, -2.68, 1.56, -1.47, 0.86, 0.000, 0.000, 0.000, 0, 0, 0, 0, 0, 0, 0, 0, 0, 0, 1774154181061, 0, 04:36:21.061
88, -0.51, -0.35, -2.86, 1.70, -2.60, 0.91, -1.99, 1.30, 0.000, 0.000, 0.000, 0, 0, 0, 0, 0, 0, 0, 0, 0, 0, 1774154181065, 0, 04:36:21.065
89, -1.14, 0.07, -2.52, 0.81, -2.38, 0.38, -1.96, 1.60, 0.000, 0.000, 0.000, 0, 0, 0, 0, 0, 0, 0, 0, 0, 0, 1774154181069, 0, 04:36:21.069
90, -1.60, 0.09, -1.84, -0.42, -1.79, -0.07, -1.66, 1.87, 0.000, 0.000, 0.000, 0, 0, 0, 0, 0, 0, 0, 0, 0, 0, 1774154181073, 0, 04:36:21.073
91, -1.72, -0.09, -1.04, -1.26, -1.06, -0.28, -0.97, 1.78, 0.000, 0.000, 0.000, 0, 0, 0, 0, 0, 0, 0, 0, 0, 0, 1774154181077, 0, 04:36:21.077
92, -1.70, -0.34, -0.21, -1.94, -0.42, -0.20, -0.05, 1.43, 0.000, 0.000, 0.000, 0, 0, 0, 0, 0, 0, 0, 0, 0, 0, 1774154181081, 0, 04:36:21.081
93, -1.28, -0.82, 0.47, -2.29, -0.01, 0.03, 0.93, 0.73, 0.000, 0.000, 0.000, 0, 0, 0, 0, 0, 0, 0, 0, 0, 0, 1774154181085, 0, 04:36:21.085
94, -0.30, -1.22, 0.93, -2.32, 0.29, 0.35, 1.77, -0.17, 0.000, 0.000, 0.000, 0, 0, 0, 0, 0, 0, 0, 0, 0, 0, 1774154181089, 0, 04:36:21.089
95, 0.67, -1.43, 0.99, -1.90, 0.33, 0.43, 2.41, -1.14, 0.000, 0.000, 0.000, 0, 0, 0, 0, 0, 0, 0, 0, 0, 0, 1774154181093, 0, 04:36:21.093
96, 1.43, -1.46, 0.78, -1.38, 0.00, 0.55, 2.77, -2.03, 0.000, 0.000, 0.000, 0, 0, 0, 0, 0, 0, 0, 0, 0, 0, 1774154181097, 0, 04:36:21.097
97, 2.05, -1.05, 0.36, -0.73, -0.12, 0.29, 2.59, -2.67, 0.000, 0.000, 0.000, 0, 0, 0, 0, 0, 0, 0, 0, 0, 0, 1774154181101, 0, 04:36:21.101
98, 2.47, -0.39, 0.01, -0.14, -0.38, -0.38, 2.22, -2.87, 0.000, 0.000, 0.000, 0, 0, 0, 0, 0, 0, 0, 0, 0, 0, 1774154181105, 0, 04:36:21.105
99, 2.41, 0.38, -0.31, 0.18, -0.40, -1.19, 1.37, -2.54, 0.000, 0.000, 0.000, 0, 0, 0, 0, 0, 0, 0, 0, 0, 0, 1774154181109, 0, 04:36:21.109
100, 1.97, 1.25, -0.41, 0.22, -0.13, -1.97, 0.71, -1.89, 0.000, 0.000, 0.000, 0, 0, 0, 0, 0, 0, 0, 0, 0, 0, 1774154181113, 0, 04:36:21.113
101, 1.20, 1.96, -0.24, 0.06, 0.45, -2.59, 0.02, -1.15, 0.000, 0.000, 0.000, 0, 0, 0, 0, 0, 0, 0, 0, 0, 0, 1774154181117, 0, 04:36:21.117
102, 0.42, 2.23, 0.16, -0.29, 1.09, -2.87, -0.45, -0.36, 0.000, 0.000, 0.000, 0, 0, 0, 0, 0, 0, 0, 0, 0, 0, 1774154181121, 0, 04:36:21.121
103, -0.38, 2.06, 0.64, -0.55, 1.90, -2.96, -0.67, 0.55, 0.000, 0.000, 0.000, 0, 0, 0, 0, 0, 0, 0, 0, 0, 0, 1774154181125, 0, 04:36:21.125
104, -1.08, 1.57, 1.09, -0.80, 2.51, -2.58, -0.65, 0.95, 0.000, 0.000, 0.000, 0, 0, 0, 0, 0, 0, 0, 0, 0, 0, 1774154181129, 0, 04:36:21.129
105, -1.29, 0.95, 1.33, -0.80, 2.78, -1.81, -0.34, 1.09, 0.000, 0.000, 0.000, 0, 0, 0, 0, 0, 0, 0, 0, 0, 0, 1774154181133, 0, 04:36:21.133
106, -1.24, -0.06, 1.29, -0.52, 2.78, -0.84, -0.08, 0.88, 0.000, 0.000, 0.000, 0, 0, 0, 0, 0, 0, 0, 0, 0, 0, 1774154181137, 0, 04:36:21.137
107, -1.11, -0.98, 0.92, 0.06, 2.24, 0.31, 0.14, 0.58, 0.000, 0.000, 0.000, 0, 0, 0, 0, 0, 0, 0, 0, 0, 0, 1774154181141, 0, 04:36:21.141
108, -0.81, -1.65, 0.29, 0.74, 1.40, 1.17, -0.03, 0.20, 0.000, 0.000, 0.000, 0, 0, 0, 0, 0, 0, 0, 0, 0, 0, 1774154181145, 0, 04:36:21.145
109, -0.50, -2.08, -0.52, 1.29, 0.40, 1.89, -0.30, -0.15, 0.000, 0.000, 0.000, 0, 0, 0, 0, 0, 0, 0, 0, 0, 0, 1774154181149, 0, 04:36:21.149
110, -0.33, -1.95, -1.42, 1.75, -0.60, 2.08, -0.94, -0.35, 0.000, 0.000, 0.000, 0, 0, 0, 0, 0, 0, 0, 0, 0, 0, 1774154181153, 0, 04:36:21.153
111, -0.53, -1.75, -2.07, 2.02, -1.47, 1.98, -1.53, -0.21, 0.000, 0.000, 0.000, 0, 0, 0, 0, 0, 0, 0, 0, 0, 0, 1774154181157, 0, 04:36:21.157
112, -0.77, -1.17, -2.51, 1.68, -2.05, 1.56, -2.30, 0.10, 0.000, 0.000, 0.000, 0, 0, 0, 0, 0, 0, 0, 0, 0, 0, 1774154181161, 0, 04:36:21.161
113, -1.29, -0.70, -2.54, 1.19, -2.18, 1.00, -2.53, 0.68, 0.000, 0.000, 0.000, 0, 0, 0, 0, 0, 0, 0, 0, 0, 0, 1774154181165, 0, 04:36:21.165
114, -1.71, -0.20, -2.00, 0.39, -1.99, 0.52, -2.74, 1.12, 0.000, 0.000, 0.000, 0, 0, 0, 0, 0, 0, 0, 0, 0, 0, 1774154181169, 0, 04:36:21.169
115, -2.20, -0.03, -1.33, -0.56, -1.58, 0.17, -2.58, 1.37, 0.000, 0.000, 0.000, 0, 0, 0, 0, 0, 0, 0, 0, 0, 0, 1774154181173, 0, 04:36:21.173
116, -2.25, -0.02, -0.44, -1.47, -0.96, 0.18, -1.81, 1.39, 0.000, 0.000, 0.000, 0, 0, 0, 0, 0, 0, 0, 0, 0, 0, 1774154181177, 0, 04:36:21.177
117, -2.15, -0.26, 0.46, -2.09, -0.37, 0.26, -0.88, 1.17, 0.000, 0.000, 0.000, 0, 0, 0, 0, 0, 0, 0, 0, 0, 0, 1774154181181, 0, 04:36:21.181
118, -1.48, -0.60, 1.27, -2.28, 0.00, 0.63, 0.18, 0.53, 0.000, 0.000, 0.000, 0, 0, 0, 0, 0, 0, 0, 0, 0, 0, 1774154181185, 0, 04:36:21.185
119, -0.60, -0.91, 1.75, -2.35, 0.08, 0.95, 1.18, -0.28, 0.000, 0.000, 0.000, 0, 0, 0, 0, 0, 0, 0, 0, 0, 0, 1774154181189, 0, 04:36:21.189
120, 0.39, -1.07, 1.77, -1.78, -0.00, 1.20, 1.90, -1.18, 0.000, 0.000, 0.000, 0, 0, 0, 0, 0, 0, 0, 0, 0, 0, 1774154181193, 0, 04:36:21.193
121, 1.46, -0.81, 1.57, -1.01, -0.39, 1.19, 2.27, -1.91, 0.000, 0.000, 0.000, 0, 0, 0, 0, 0, 0, 0, 0, 0, 0, 1774154181197, 0, 04:36:21.197
122, 2.32, -0.48, 1.23, -0.31, -0.74, 1.00, 2.23, -2.31, 0.000, 0.000, 0.000, 0, 0, 0, 0, 0, 0, 0, 0, 0, 0, 1774154181201, 0, 04:36:21.201
123, 2.70, 0.30, 0.64, 0.43, -0.98, 0.43, 1.96, -2.40, 0.000, 0.000, 0.000, 0, 0, 0, 0, 0, 0, 0, 0, 0, 0, 1774154181205, 0, 04:36:21.205
124, 2.69, 1.17, 0.45, 0.79, -0.94, -0.28, 1.39, -1.93, 0.000, 0.000, 0.000, 0, 0, 0, 0, 0, 0, 0, 0, 0, 0, 1774154181209, 0, 04:36:21.209
125, 2.42, 2.05, 0.31, 0.95, -0.77, -1.18, 0.67, -1.34, 0.000, 0.000, 0.000, 0, 0, 0, 0, 0, 0, 0, 0, 0, 0, 1774154181213, 0, 04:36:21.213
126, 1.74, 2.66, 0.13, 0.81, -0.28, -1.83, 0.13, -0.53, 0.000, 0.000, 0.000, 0, 0, 0, 0, 0, 0, 0, 0, 0, 0, 1774154181217, 0, 04:36:21.217
127, 1.00, 3.01, 0.53, 0.51, 0.50, -2.23, -0.26, 0.37, 0.000, 0.000, 0.000, 0, 0, 0, 0, 0, 0, 0, 0, 0, 0, 1774154181221, 0, 04:36:21.221
128, 0.27, 2.89, 0.88, 0.19, 1.15, -2.37, -0.27, 1.24, 0.000, 0.000, 0.000, 0, 0, 0, 0, 0, 0, 0, 0, 0, 0, 1774154181225, 0, 04:36:21.225
129, -0.36, 2.30, 1.25, 0.01, 1.88, -2.02, -0.09, 1.70, 0.000, 0.000, 0.000, 0, 0, 0, 0, 0, 0, 0, 0, 0, 0, 1774154181229, 0, 04:36:21.229
130, -0.63, 1.55, 1.40, -0.04, 2.08, -1.36, 0.22, 1.95, 0.000, 0.000, 0.000, 0, 0, 0, 0, 0, 0, 0, 0, 0, 0, 1774154181233, 0, 04:36:21.233
131, -0.54, 0.50, 1.32, 0.30, 2.02, -0.40, 0.59, 1.75, 0.000, 0.000, 0.000, 0, 0, 0, 0, 0, 0, 0, 0, 0, 0, 1774154181237, 0, 04:36:21.237
132, -0.37, -0.49, 0.81, 0.76, 1.63, 0.46, 0.79, 1.26, 0.000, 0.000, 0.000, 0, 0, 0, 0, 0, 0, 0, 0, 0, 0, 1774154181241, 0, 04:36:21.241
133, -0.15, -1.18, 0.01, 1.38, 0.88, 1.26, 0.71, 0.84, 0.000, 0.000, 0.000, 0, 0, 0, 0, 0, 0, 0, 0, 0, 0, 1774154181245, 0, 04:36:21.245
134, 0.27, -1.64, -0.90, 1.84, -0.07, 1.73, 0.52, 0.46, 0.000, 0.000, 0.000, 0, 0, 0, 0, 0, 0, 0, 0, 0, 0, 1774154181249, 0, 04:36:21.249
135, 0.33, -1.76, -1.82, 2.19, -0.84, 1.83, -0.09, 0.30, 0.000, 0.000, 0.000, 0, 0, 0, 0, 0, 0, 0, 0, 0, 0, 1774154181253, 0, 04:36:21.253
136, 0.12, -1.58, -2.69, 2.33, -1.70, 1.60, -0.67, 0.25, 0.000, 0.000, 0.000, 0, 0, 0, 0, 0, 0, 0, 0, 0, 0, 1774154181257, 0, 04:36:21.257
137, -0.32, -1.33, -3.17, 2.13, -2.12, 1.24, -1.38, 0.55, 0.000, 0.000, 0.000, 0, 0, 0, 0, 0, 0, 0, 0, 0, 0, 1774154181261, 0, 04:36:21.261
138, -0.80, -0.88, -3.05, 1.36, -2.22, 0.52, -1.78, 0.84, 0.000, 0.000, 0.000, 0, 0, 0, 0, 0, 0, 0, 0, 0, 0, 1774154181265, 0, 04:36:21.265
139, -1.45, -0.40, -2.80, 0.30, -1.91, 0.03, -1.97, 1.27, 0.000, 0.000, 0.000, 0, 0, 0, 0, 0, 0, 0, 0, 0, 0, 1774154181269, 0, 04:36:21.269
140, -1.86, -0.43, -2.07, -0.72, -1.25, -0.38, -1.79, 1.49, 0.000, 0.000, 0.000, 0, 0, 0, 0, 0, 0, 0, 0, 0, 0, 1774154181273, 0, 04:36:21.273
141, -2.20, -0.47, -1.18, -1.69, -0.68, -0.51, -1.25, 1.47, 0.000, 0.000, 0.000, 0, 0, 0, 0, 0, 0, 0, 0, 0, 0, 1774154181277, 0, 04:36:21.277
142, -2.09, -0.85, -0.22, -2.51, -0.01, -0.48, -0.40, 1.01, 0.000, 0.000, 0.000, 0, 0, 0, 0, 0, 0, 0, 0, 0, 0, 1774154181281, 0, 04:36:21.281
143, -1.64, -1.23, 0.60, -2.74, 0.50, -0.20, 0.61, 0.25, 0.000, 0.000, 0.000, 0, 0, 0, 0, 0, 0, 0, 0, 0, 0, 1774154181285, 0, 04:36:21.285
144, -0.81, -1.63, 1.03, -2.76, 0.78, 0.22, 1.47, -0.56, 0.000, 0.000, 0.000, 0, 0, 0, 0, 0, 0, 0, 0, 0, 0, 1774154181289, 0, 04:36:21.289
145, 0.11, -1.74, 1.09, -2.35, 0.64, 0.46, 2.05, -1.60, 0.000, 0.000, 0.000, 0, 0, 0, 0, 0, 0, 0, 0, 0, 0, 1774154181293, 0, 04:36:21.293
146, 1.06, -1.64, 0.97, -1.71, 0.42, 0.49, 2.38, -2.38, 0.000, 0.000, 0.000, 0, 0, 0, 0, 0, 0, 0, 0, 0, 0, 1774154181297, 0, 04:36:21.297
147, 1.70, -1.22, 0.70, -0.94, 0.08, 0.43, 2.21, -2.97, 0.000, 0.000, 0.000, 0, 0, 0, 0, 0, 0, 0, 0, 0, 0, 1774154181301, 0, 04:36:21.301
148, 2.09, -0.51, 0.35, -0.41, -0.10, -0.19, 1.77, -3.06, 0.000, 0.000, 0.000, 0, 0, 0, 0, 0, 0, 0, 0, 0, 0, 1774154181305, 0, 04:36:21.305
149, 2.07, 0.45, 0.02, -0.04, -0.28, -0.88, 0.98, -2.80, 0.000, 0.000, 0.000, 0, 0, 0, 0, 0, 0, 0, 0, 0, 0, 1774154181309, 0, 04:36:21.309
150, 1.74, 1.27, 0.09, 0.20, 0.05, -1.57, 0.32, -2.09, 0.000, 0.000, 0.000, 0, 0, 0, 0, 0, 0, 0, 0, 0, 0, 1774154181313, 0, 04:36:21.313
151, 1.11, 2.06, 0.18, -0.01, 0.48, -2.12, -0.35, -1.18, 0.000, 0.000, 0.000, 0, 0, 0, 0, 0, 0, 0, 0, 0, 0, 1774154181317, 0, 04:36:21.317
152, 0.23, 2.55, 0.70, -0.17, 1.18, -2.62, -0.73, -0.31, 0.000, 0.000, 0.000, 0, 0, 0, 0, 0, 0, 0, 0, 0, 0, 1774154181321, 0, 04:36:21.321
153, -0.50, 2.47, 1.21, -0.37, 1.77, -2.43, -0.87, 0.50, 0.000, 0.000, 0.000, 0, 0, 0, 0, 0, 0, 0, 0, 0, 0, 1774154181325, 0, 04:36:21.325
154, -0.99, 2.02, 1.57, -0.55, 2.35, -2.08, -0.80, 1.09, 0.000, 0.000, 0.000, 0, 0, 0, 0, 0, 0, 0, 0, 0, 0, 1774154181329, 0, 04:36:21.329
155, -1.26, 1.25, 1.86, -0.44, 2.59, -1.23, -0.51, 1.26, 0.000, 0.000, 0.000, 0, 0, 0, 0, 0, 0, 0, 0, 0, 0, 1774154181333, 0, 04:36:21.333
156, -1.15, 0.28, 1.75, -0.11, 2.40, -0.27, -0.09, 1.15, 0.000, 0.000, 0.000, 0, 0, 0, 0, 0, 0, 0, 0, 0, 0, 1774154181337, 0, 04:36:21.337
157, -1.01, -0.54, 1.45, 0.55, 1.86, 0.90, 0.02, 0.95, 0.000, 0.000, 0.000, 0, 0, 0, 0, 0, 0, 0, 0, 0, 0, 1774154181341, 0, 04:36:21.341
158, -0.55, -1.08, 0.71, 1.12, 1.03, 1.70, 0.07, 0.56, 0.000, 0.000, 0.000, 0, 0, 0, 0, 0, 0, 0, 0, 0, 0, 1774154181345, 0, 04:36:21.345
159, -0.19, -1.53, -0.21, 1.85, 0.02, 2.26, -0.24, 0.27, 0.000, 0.000, 0.000, 0, 0, 0, 0, 0, 0, 0, 0, 0, 0, 1774154181349, 0, 04:36:21.349
160, -0.07, -1.54, -1.08, 2.31, -1.07, 2.50, -0.80, 0.20, 0.000, 0.000, 0.000, 0, 0, 0, 0, 0, 0, 0, 0, 0, 0, 1774154181353, 0, 04:36:21.353
161, -0.06, -1.22, -1.85, 2.54, -1.92, 2.37, -1.37, 0.34, 0.000, 0.000, 0.000, 0, 0, 0, 0, 0, 0, 0, 0, 0, 0, 1774154181357, 0, 04:36:21.357
162, -0.35, -0.79, -2.30, 2.28, -2.53, 1.95, -1.86, 0.66, 0.000, 0.000, 0.000, 0, 0, 0, 0, 0, 0, 0, 0, 0, 0, 1774154181361, 0, 04:36:21.361
163, -0.79, -0.29, -2.30, 1.77, -2.61, 1.39, -2.23, 1.10, 0.000, 0.000, 0.000, 0, 0, 0, 0, 0, 0, 0, 0, 0, 0, 1774154181365, 0, 04:36:21.365
164, -1.23, 0.16, -2.04, 0.80, -2.32, 0.81, -2.29, 1.60, 0.000, 0.000, 0.000, 0, 0, 0, 0, 0, 0, 0, 0, 0, 0, 1774154181369, 0, 04:36:21.369
165, -1.69, 0.30, -1.26, -0.09, -1.84, 0.34, -1.92, 1.96, 0.000, 0.000, 0.000, 0, 0, 0, 0, 0, 0, 0, 0, 0, 0, 1774154181373, 0, 04:36:21.373
166, -1.87, 0.23, -0.56, -1.03, -1.25, 0.22, -1.26, 1.96, 0.000, 0.000, 0.000, 0, 0, 0, 0, 0, 0, 0, 0, 0, 0, 1774154181377, 0, 04:36:21.377
167, -1.61, -0.06, 0.42, -1.73, -0.63, 0.34, -0.34, 1.61, 0.000, 0.000, 0.000, 0, 0, 0, 0, 0, 0, 0, 0, 0, 0, 1774154181381, 0, 04:36:21.381
168, -0.99, -0.40, 0.97, -2.01, -0.25, 0.52, 0.79, 0.95, 0.000, 0.000, 0.000, 0, 0, 0, 0, 0, 0, 0, 0, 0, 0, 1774154181385, 0, 04:36:21.385
169, -0.24, -0.80, 1.40, -1.94, 0.05, 0.88, 1.76, 0.16, 0.000, 0.000, 0.000, 0, 0, 0, 0, 0, 0, 0, 0, 0, 0, 1774154181389, 0, 04:36:21.389
170, 0.77, -1.00, 1.43, -1.52, 0.01, 1.04, 2.45, -0.81, 0.000, 0.000, 0.000, 0, 0, 0, 0, 0, 0, 0, 0, 0, 0, 1774154181393, 0, 04:36:21.393
171, 1.80, -0.88, 1.20, -0.91, -0.32, 1.01, 2.86, -1.57, 0.000, 0.000, 0.000, 0, 0, 0, 0, 0, 0, 0, 0, 0, 0, 1774154181397, 0, 04:36:21.397
172, 2.51, -0.52, 0.82, -0.24, -0.48, 0.76, 2.79, -2.08, 0.000, 0.000, 0.000, 0, 0, 0, 0, 0, 0, 0, 0, 0, 0, 1774154181401, 0, 04:36:21.401
173, 2.95, 0.14, 0.38, 0.36, -0.83, 0.03, 2.36, -2.28, 0.000, 0.000, 0.000, 0, 0, 0, 0, 0, 0, 0, 0, 0, 0, 1774154181405, 0, 04:36:21.405
174, 2.89, 0.99, -0.01, 0.66, -0.83, -0.72, 1.75, -1.95, 0.000, 0.000, 0.000, 0, 0, 0, 0, 0, 0, 0, 0, 0, 0, 1774154181409, 0, 04:36:21.409
175, 2.51, 1.79, -0.25, 0.85, -0.51, -1.47, 1.12, -1.38, 0.000, 0.000, 0.000, 0, 0, 0, 0, 0, 0, 0, 0, 0, 0, 1774154181413, 0, 04:36:21.413
176, 1.72, 2.36, -0.14, 0.57, 0.08, -2.18, 0.50, -0.55, 0.000, 0.000, 0.000, 0, 0, 0, 0, 0, 0, 0, 0, 0, 0, 1774154181417, 0, 04:36:21.417
177, 0.93, 2.64, 0.11, 0.27, 0.95, -2.61, 0.04, 0.18, 0.000, 0.000, 0.000, 0, 0, 0, 0, 0, 0, 0, 0, 0, 0, 1774154181421, 0, 04:36:21.421
178, 0.11, 2.47, 0.52, -0.06, 1.61, -2.79, -0.10, 0.96, 0.000, 0.000, 0.000, 0, 0, 0, 0, 0, 0, 0, 0, 0, 0, 1774154181425, 0, 04:36:21.425
179, -0.55, 1.93, 0.90, -0.31, 2.23, -2.43, -0.07, 1.41, 0.000, 0.000, 0.000, 0, 0, 0, 0, 0, 0, 0, 0, 0, 0, 1774154181429, 0, 04:36:21.429
180, -0.90, 1.16, 1.14, -0.47, 2.59, -1.71, 0.33, 1.55, 0.000, 0.000, 0.000, 0, 0, 0, 0, 0, 0, 0, 0, 0, 0, 1774154181433, 0, 04:36:21.433
181, -0.85, 0.15, 1.10, -0.15, 2.67, -0.76, 0.57, 1.38, 0.000, 0.000, 0.000, 0, 0, 0, 0, 0, 0, 0, 0, 0, 0, 1774154181437, 0, 04:36:21.437
182, -0.72, -0.81, 0.59, 0.34, 2.24, 0.17, 0.70, 0.98, 0.000, 0.000, 0.000, 0, 0, 0, 0, 0, 0, 0, 0, 0, 0, 1774154181441, 0, 04:36:21.441
183, -0.47, -1.57, -0.02, 0.92, 1.42, 1.04, 0.47, 0.51, 0.000, 0.000, 0.000, 0, 0, 0, 0, 0, 0, 0, 0, 0, 0, 1774154181445, 0, 04:36:21.445
184, -0.19, -2.02, -0.81, 1.56, 0.41, 1.59, 0.22, 0.05, 0.000, 0.000, 0.000, 0, 0, 0, 0, 0, 0, 0, 0, 0, 0, 1774154181449, 0, 04:36:21.449
185, -0.05, -2.08, -1.71, 1.85, -0.51, 1.80, -0.37, -0.09, 0.000, 0.000, 0.000, 0, 0, 0, 0, 0, 0, 0, 0, 0, 0, 1774154181453, 0, 04:36:21.453
186, -0.38, -1.84, -2.51, 1.87, -1.16, 1.58, -1.05, -0.00, 0.000, 0.000, 0.000, 0, 0, 0, 0, 0, 0, 0, 0, 0, 0, 1774154181457, 0, 04:36:21.457
187, -0.74, -1.41, -2.93, 1.72, -1.69, 1.20, -1.79, 0.16, 0.000, 0.000, 0.000, 0, 0, 0, 0, 0, 0, 0, 0, 0, 0, 1774154181461, 0, 04:36:21.461
188, -1.28, -0.97, -2.83, 1.00, -1.82, 0.66, -2.27, 0.55, 0.000, 0.000, 0.000, 0, 0, 0, 0, 0, 0, 0, 0, 0, 0, 1774154181465, 0, 04:36:21.465
189, -1.76, -0.52, -2.53, 0.04, -1.48, 0.13, -2.40, 0.95, 0.000, 0.000, 0.000, 0, 0, 0, 0, 0, 0, 0, 0, 0, 0, 1774154181469, 0, 04:36:21.469
190, -2.28, -0.38, -1.60, -0.89, -0.96, -0.23, -2.25, 1.25, 0.000, 0.000, 0.000, 0, 0, 0, 0, 0, 0, 0, 0, 0, 0, 1774154181473, 0, 04:36:21.473
191, -2.45, -0.41, -0.71, -1.74, -0.43, -0.25, -1.64, 1.20, 0.000, 0.000, 0.000, 0, 0, 0, 0, 0, 0, 0, 0, 0, 0, 1774154181477, 0, 04:36:21.477
192, -2.38, -0.67, 0.34, -2.52, 0.15, -0.08, -0.74, 0.81, 0.000, 0.000, 0.000, 0, 0, 0, 0, 0, 0, 0, 0, 0, 0, 1774154181481, 0, 04:36:21.481
193, -1.83, -1.02, 0.96, -2.63, 0.52, 0.28, 0.30, 0.18, 0.000, 0.000, 0.000, 0, 0, 0, 0, 0, 0, 0, 0, 0, 0, 1774154181485, 0, 04:36:21.485
194, -0.91, -1.36, 1.59, -2.66, 0.66, 0.70, 1.19, -0.55, 0.000, 0.000, 0.000, 0, 0, 0, 0, 0, 0, 0, 0, 0, 0, 1774154181489, 0, 04:36:21.489
195, 0.08, -1.40, 1.71, -2.14, 0.48, 1.00, 1.87, -1.42, 0.000, 0.000, 0.000, 0, 0, 0, 0, 0, 0, 0, 0, 0, 0, 1774154181493, 0, 04:36:21.493
196, 1.09, -1.12, 1.57, -1.49, 0.16, 1.07, 2.13, -2.16, 0.000, 0.000, 0.000, 0, 0, 0, 0, 0, 0, 0, 0, 0, 0, 1774154181497, 0, 04:36:21.497
197, 1.85, -0.77, 1.19, -0.65, -0.23, 0.84, 2.13, -2.68, 0.000, 0.000, 0.000, 0, 0, 0, 0, 0, 0, 0, 0, 0, 0, 1774154181501, 0, 04:36:21.501
198, 2.33, 0.03, 0.90, 0.02, -0.39, 0.45, 1.56, -2.80, 0.000, 0.000, 0.000, 0, 0, 0, 0, 0, 0, 0, 0, 0, 0, 1774154181505, 0, 04:36:21.505
199, 2.38, 0.93, 0.61, 0.42, -0.61, -0.29, 1.12, -2.41, 0.000, 0.000, 0.000, 0, 0, 0, 0, 0, 0, 0, 0, 0, 0, 1774154181509, 0, 04:36:21.509
200, 2.08, 1.84, 0.56, 0.81, -0.25, -1.05, 0.44, -1.75, 0.000, 0.000, 0.000, 0, 0, 0, 0, 0, 0, 0, 0, 0, 0, 1774154181513, 0, 04:36:21.513
201, 1.47, 2.66, 0.66, 0.59, 0.07, -1.68, -0.21, -0.82, 0.000, 0.000, 0.000, 0, 0, 0, 0, 0, 0, 0, 0, 0, 0, 1774154181517, 0, 04:36:21.517
202, 0.62, 2.94, 0.92, 0.36, 0.82, -2.09, -0.54, 0.23, 0.000, 0.000, 0.000, 0, 0, 0, 0, 0, 0, 0, 0, 0, 0, 1774154181521, 0, 04:36:21.521
203, -0.10, 2.92, 1.33, 0.17, 1.39, -2.09, -0.65, 1.08, 0.000, 0.000, 0.000, 0, 0, 0, 0, 0, 0, 0, 0, 0, 0, 1774154181525, 0, 04:36:21.525
204, -0.44, 2.43, 1.70, 0.07, 1.87, -1.70, -0.47, 1.71, 0.000, 0.000, 0.000, 0, 0, 0, 0, 0, 0, 0, 0, 0, 0, 1774154181529, 0, 04:36:21.529
205, -0.65, 1.71, 2.03, 0.10, 2.27, -0.96, -0.14, 1.84, 0.000, 0.000, 0.000, 0, 0, 0, 0, 0, 0, 0, 0, 0, 0, 1774154181533, 0, 04:36:21.533
206, -0.69, 0.74, 1.81, 0.32, 2.16, 0.03, 0.27, 1.70, 0.000, 0.000, 0.000, 0, 0, 0, 0, 0, 0, 0, 0, 0, 0, 1774154181537, 0, 04:36:21.537
207, -0.45, -0.05, 1.46, 0.94, 1.56, 0.99, 0.55, 1.45, 0.000, 0.000, 0.000, 0, 0, 0, 0, 0, 0, 0, 0, 0, 0, 1774154181541, 0, 04:36:21.541
208, 0.03, -0.66, 0.66, 1.51, 0.77, 1.86, 0.57, 1.05, 0.000, 0.000, 0.000, 0, 0, 0, 0, 0, 0, 0, 0, 0, 0, 1774154181545, 0, 04:36:21.545
209, 0.41, -1.23, -0.30, 2.28, -0.25, 2.37, 0.41, 0.72, 0.000, 0.000, 0.000, 0, 0, 0, 0, 0, 0, 0, 0, 0, 0, 1774154181549, 0, 04:36:21.549
210, 0.61, -1.37, -1.31, 2.59, -1.20, 2.55, -0.15, 0.61, 0.000, 0.000, 0.000, 0, 0, 0, 0, 0, 0, 0, 0, 0, 0, 1774154181553, 0, 04:36:21.553
211, 0.45, -1.03, -2.08, 2.74, -1.98, 2.27, -0.83, 0.62, 0.000, 0.000, 0.000, 0, 0, 0, 0, 0, 0, 0, 0, 0, 0, 1774154181557, 0, 04:36:21.557
212, 0.07, -0.71, -2.61, 2.50, -2.48, 1.78, -1.27, 0.98, 0.000, 0.000, 0.000, 0, 0, 0, 0, 0, 0, 0, 0, 0, 0, 1774154181561, 0, 04:36:21.561
213, -0.48, -0.18, -2.72, 1.85, -2.63, 1.10, -1.80, 1.42, 0.000, 0.000, 0.000, 0, 0, 0, 0, 0, 0, 0, 0, 0, 0, 1774154181565, 0, 04:36:21.565
214, -1.01, 0.08, -2.36, 0.88, -2.27, 0.55, -1.85, 1.86, 0.000, 0.000, 0.000, 0, 0, 0, 0, 0, 0, 0, 0, 0, 0, 1774154181569, 0, 04:36:21.569
215, -1.49, 0.17, -1.75, -0.08, -1.64, 0.04, -1.52, 2.04, 0.000, 0.000, 0.000, 0, 0, 0, 0, 0, 0, 0, 0, 0, 0, 1774154181573, 0, 04:36:21.573
216, -1.73, 0.06, -0.94, -1.10, -0.99, -0.20, -0.86, 2.02, 0.000, 0.000, 0.000, 0, 0, 0, 0, 0, 0, 0, 0, 0, 0, 1774154181577, 0, 04:36:21.577
217, -1.45, -0.24, -0.03, -1.83, -0.33, -0.01, -0.04, 1.56, 0.000, 0.000, 0.000, 0, 0, 0, 0, 0, 0, 0, 0, 0, 0, 1774154181581, 0, 04:36:21.581
218, -0.97, -0.74, 0.63, -2.29, 0.13, 0.08, 1.00, 0.85, 0.000, 0.000, 0.000, 0, 0, 0, 0, 0, 0, 0, 0, 0, 0, 1774154181585, 0, 04:36:21.585
219, -0.22, -1.16, 1.07, -2.13, 0.38, 0.45, 1.89, 0.00, 0.000, 0.000, 0.000, 0, 0, 0, 0, 0, 0, 0, 0, 0, 0, 1774154181589, 0, 04:36:21.589
220, 0.62, -1.38, 1.11, -1.88, 0.46, 0.59, 2.64, -1.11, 0.000, 0.000, 0.000, 0, 0, 0, 0, 0, 0, 0, 0, 0, 0, 1774154181593, 0, 04:36:21.593
221, 1.60, -1.36, 0.88, -1.16, 0.14, 0.69, 2.96, -1.92, 0.000, 0.000, 0.000, 0, 0, 0, 0, 0, 0, 0, 0, 0, 0, 1774154181597, 0, 04:36:21.597
222, 2.28, -0.90, 0.64, -0.49, -0.04, 0.41, 2.72, -2.42, 0.000, 0.000, 0.000, 0, 0, 0, 0, 0, 0, 0, 0, 0, 0, 1774154181601, 0, 04:36:21.601
223, 2.62, -0.34, 0.22, 0.00, -0.25, -0.18, 2.36, -2.66, 0.000, 0.000, 0.000, 0, 0, 0, 0, 0, 0, 0, 0, 0, 0, 1774154181605, 0, 04:36:21.605
224, 2.60, 0.55, -0.12, 0.37, -0.21, -0.89, 1.65, -2.42, 0.000, 0.000, 0.000, 0, 0, 0, 0, 0, 0, 0, 0, 0, 0, 1774154181609, 0, 04:36:21.609
225, 2.13, 1.43, -0.28, 0.26, 0.03, -1.75, 0.81, -1.82, 0.000, 0.000, 0.000, 0, 0, 0, 0, 0, 0, 0, 0, 0, 0, 1774154181613, 0, 04:36:21.613
226, 1.40, 2.05, -0.12, 0.22, 0.60, -2.31, 0.07, -0.99, 0.000, 0.000, 0.000, 0, 0, 0, 0, 0, 0, 0, 0, 0, 0, 1774154181617, 0, 04:36:21.617
227, 0.55, 2.37, 0.33, -0.04, 1.33, -2.77, -0.34, -0.08, 0.000, 0.000, 0.000, 0, 0, 0, 0, 0, 0, 0, 0, 0, 0, 1774154181621, 0, 04:36:21.621
228, -0.26, 2.26, 0.74, -0.39, 2.05, -2.85, -0.50, 0.65, 0.000, 0.000, 0.000, 0, 0, 0, 0, 0, 0, 0, 0, 0, 0, 1774154181625, 0, 04:36:21.625
229, -0.97, 1.84, 1.18, -0.71, 2.69, -2.39, -0.32, 1.08, 0.000, 0.000, 0.000, 0, 0, 0, 0, 0, 0, 0, 0, 0, 0, 1774154181629, 0, 04:36:21.629
230, -1.19, 1.05, 1.57, -0.65, 3.00, -1.62, -0.17, 1.28, 0.000, 0.000, 0.000, 0, 0, 0, 0, 0, 0, 0, 0, 0, 0, 1774154181633, 0, 04:36:21.633
231, -1.24, 0.10, 1.46, -0.46, 3.00, -0.63, 0.05, 1.10, 0.000, 0.000, 0.000, 0, 0, 0, 0, 0, 0, 0, 0, 0, 0, 1774154181637, 0, 04:36:21.637
232, -1.05, -0.77, 1.20, 0.21, 2.42, 0.34, 0.25, 0.78, 0.000, 0.000, 0.000, 0, 0, 0, 0, 0, 0, 0, 0, 0, 0, 1774154181641, 0, 04:36:21.641
233, -0.58, -1.46, 0.40, 0.76, 1.49, 1.35, 0.10, 0.27, 0.000, 0.000, 0.000, 0, 0, 0, 0, 0, 0, 0, 0, 0, 0, 1774154181645, 0, 04:36:21.645
234, -0.28, -1.88, -0.35, 1.55, 0.62, 1.88, -0.15, 0.06, 0.000, 0.000, 0.000, 0, 0, 0, 0, 0, 0, 0, 0, 0, 0, 1774154181649, 0, 04:36:21.649
235, -0.16, -1.94, -1.13, 2.02, -0.47, 2.08, -0.77, -0.16, 0.000, 0.000, 0.000, 0, 0, 0, 0, 0, 0, 0, 0, 0, 0, 1774154181653, 0, 04:36:21.653
236, -0.30, -1.56, -1.93, 2.10, -1.22, 2.08, -1.44, -0.19, 0.000, 0.000, 0.000, 0, 0, 0, 0, 0, 0, 0, 0, 0, 0, 1774154181657, 0, 04:36:21.657
237, -0.58, -1.07, -2.33, 1.93, -1.80, 1.69, -2.02, 0.36, 0.000, 0.000, 0.000, 0, 0, 0, 0, 0, 0, 0, 0, 0, 0, 1774154181661, 0, 04:36:21.661
238, -1.13, -0.50, -2.36, 1.31, -2.06, 1.17, -2.39, 0.75, 0.000, 0.000, 0.000, 0, 0, 0, 0, 0, 0, 0, 0, 0, 0, 1774154181665, 0, 04:36:21.665
239, -1.65, -0.17, -1.84, 0.48, -1.80, 0.57, -2.48, 1.21, 0.000, 0.000, 0.000, 0, 0, 0, 0, 0, 0, 0, 0, 0, 0, 1774154181669, 0, 04:36:21.669
240, -2.10, 0.06, -1.19, -0.54, -1.40, 0.35, -2.34, 1.51, 0.000, 0.000, 0.000, 0, 0, 0, 0, 0, 0, 0, 0, 0, 0, 1774154181673, 0, 04:36:21.673
241, -2.16, 0.11, -0.25, -1.32, -0.79, 0.28, -1.66, 1.61, 0.000, 0.000, 0.000, 0, 0, 0, 0, 0, 0, 0, 0, 0, 0, 1774154181677, 0, 04:36:21.677
242, -1.95, -0.15, 0.61, -2.05, -0.21, 0.40, -0.66, 1.26, 0.000, 0.000, 0.000, 0, 0, 0, 0, 0, 0, 0, 0, 0, 0, 1774154181681, 0, 04:36:21.681
243, -1.42, -0.57, 1.47, -2.31, 0.18, 0.76, 0.42, 0.67, 0.000, 0.000, 0.000, 0, 0, 0, 0, 0, 0, 0, 0, 0, 0, 1774154181685, 0, 04:36:21.685
244, -0.47, -0.76, 1.90, -2.09, 0.29, 1.17, 1.24, -0.14, 0.000, 0.000, 0.000, 0, 0, 0, 0, 0, 0, 0, 0, 0, 0, 1774154181689, 0, 04:36:21.689
245, 0.58, -0.99, 1.94, -1.61, 0.12, 1.39, 2.08, -1.00, 0.000, 0.000, 0.000, 0, 0, 0, 0, 0, 0, 0, 0, 0, 0, 1774154181693, 0, 04:36:21.693
246, 1.68, -0.79, 1.69, -0.88, -0.07, 1.45, 2.43, -1.75, 0.000, 0.000, 0.000, 0, 0, 0, 0, 0, 0, 0, 0, 0, 0, 1774154181697, 0, 04:36:21.697
247, 2.45, -0.22, 1.41, -0.16, -0.56, 1.19, 2.34, -2.14, 0.000, 0.000, 0.000, 0, 0, 0, 0, 0, 0, 0, 0, 0, 0, 1774154181701, 0, 04:36:21.701
248, 2.87, 0.54, 0.86, 0.61, -0.89, 0.54, 2.01, -2.24, 0.000, 0.000, 0.000, 0, 0, 0, 0, 0, 0, 0, 0, 0, 0, 1774154181705, 0, 04:36:21.705
249, 2.93, 1.27, 0.46, 0.96, -0.92, -0.15, 1.46, -1.89, 0.000, 0.000, 0.000, 0, 0, 0, 0, 0, 0, 0, 0, 0, 0, 1774154181709, 0, 04:36:21.709
250, 2.57, 2.16, 0.26, 1.11, -0.55, -0.95, 0.83, -1.20, 0.000, 0.000, 0.000, 0, 0, 0, 0, 0, 0, 0, 0, 0, 0, 1774154181713, 0, 04:36:21.713
251, 1.93, 2.84, 0.39, 0.99, -0.12, -1.73, 0.32, -0.35, 0.000, 0.000, 0.000, 0, 0, 0, 0, 0, 0, 0, 0, 0, 0, 1774154181717, 0, 04:36:21.717
252, 1.11, 3.24, 0.62, 0.74, 0.58, -2.20, -0.05, 0.53, 0.000, 0.000, 0.000, 0, 0, 0, 0, 0, 0, 0, 0, 0, 0, 1774154181721, 0, 04:36:21.721
253, 0.42, 3.03, 1.04, 0.39, 1.29, -2.21, -0.09, 1.44, 0.000, 0.000, 0.000, 0, 0, 0, 0, 0, 0, 0, 0, 0, 0, 1774154181725, 0, 04:36:21.725
254, -0.16, 2.51, 1.45, 0.17, 1.90, -1.98, 0.04, 1.90, 0.000, 0.000, 0.000, 0, 0, 0, 0, 0, 0, 0, 0, 0, 0, 1774154181729, 0, 04:36:21.729
255, -0.46, 1.78, 1.55, 0.18, 2.22, -1.29, 0.33, 2.09, 0.000, 0.000, 0.000, 0, 0, 0, 0, 0, 0, 0, 0, 0, 0, 1774154181733, 0, 04:36:21.733
0, -0.38, 0.69, 1.45, 0.32, 2.24, -0.38, 0.69, 1.91, 0.000, 0.000, 0.000, 0, 0, 0, 0, 0, 0, 0, 0, 0, 0, 1774154181737, 0, 04:36:21.737
1, -0.17, -0.22, 0.93, 0.80, 1.78, 0.60, 0.95, 1.46, 0.000, 0.000, 0.000, 0, 0, 0, 0, 0, 0, 0, 0, 0, 0, 1774154181741, 0, 04:36:21.741
2, 0.04, -1.11, 0.21, 1.48, 1.06, 1.38, 0.94, 0.91, 0.000, 0.000, 0.000, 0, 0, 0, 0, 0, 0, 0, 0, 0, 0, 1774154181745, 0, 04:36:21.745
3, 0.38, -1.51, -0.65, 2.04, 0.13, 1.92, 0.59, 0.56, 0.000, 0.000, 0.000, 0, 0, 0, 0, 0, 0, 0, 0, 0, 0, 1774154181749, 0, 04:36:21.749
4, 0.52, -1.71, -1.71, 2.45, -0.84, 1.97, 0.01, 0.43, 0.000, 0.000, 0.000, 0, 0, 0, 0, 0, 0, 0, 0, 0, 0, 1774154181753, 0, 04:36:21.753
5, 0.36, -1.50, -2.46, 2.48, -1.64, 1.75, -0.60, 0.41, 0.000, 0.000, 0.000, 0, 0, 0, 0, 0, 0, 0, 0, 0, 0, 1774154181757, 0, 04:36:21.757
6, -0.05, -1.04, -3.02, 2.17, -2.08, 1.34, -1.25, 0.64, 0.000, 0.000, 0.000, 0, 0, 0, 0, 0, 0, 0, 0, 0, 0, 1774154181761, 0, 04:36:21.761
7, -0.68, -0.66, -2.92, 1.39, -1.91, 0.67, -1.69, 0.91, 0.000, 0.000, 0.000, 0, 0, 0, 0, 0, 0, 0, 0, 0, 0, 1774154181765, 0, 04:36:21.765
8, -1.35, -0.35, -2.64, 0.48, -1.67, 0.10, -1.93, 1.38, 0.000, 0.000, 0.000, 0, 0, 0, 0, 0, 0, 0, 0, 0, 0, 1774154181769, 0, 04:36:21.769
9, -1.87, -0.26, -1.86, -0.65, -1.10, -0.36, -1.71, 1.53, 0.000, 0.000, 0.000, 0, 0, 0, 0, 0, 0, 0, 0, 0, 0, 1774154181773, 0, 04:36:21.773
10, -2.05, -0.35, -1.01, -1.56, -0.50, -0.41, -1.06, 1.48, 0.000, 0.000, 0.000, 0, 0, 0, 0, 0, 0, 0, 0, 0, 0, 1774154181777, 0, 04:36:21.777
11, -1.94, -0.65, -0.06, -2.39, 0.18, -0.25, -0.27, 1.15, 0.000, 0.000, 0.000, 0, 0, 0, 0, 0, 0, 0, 0, 0, 0, 1774154181781, 0, 04:36:21.781
12, -1.42, -1.03, 0.70, -2.64, 0.61, -0.08, 0.68, 0.34, 0.000, 0.000, 0.000, 0, 0, 0, 0, 0, 0, 0, 0, 0, 0, 1774154181785, 0, 04:36:21.785
13, -0.65, -1.57, 1.13, -2.68, 0.79, 0.37, 1.63, -0.57, 0.000, 0.000, 0.000, 0, 0, 0, 0, 0, 0, 0, 0, 0, 0, 1774154181789, 0, 04:36:21.789
14, 0.23, -1.66, 1.37, -2.23, 0.76, 0.60, 2.13, -1.48, 0.000, 0.000, 0.000, 0, 0, 0, 0, 0, 0, 0, 0, 0, 0, 1774154181793, 0, 04:36:21.793
15, 1.10, -1.49, 1.15, -1.52, 0.60, 0.58, 2.55, -2.28, 0.000, 0.000, 0.000, 0, 0, 0, 0, 0, 0, 0, 0, 0, 0, 1774154181797, 0, 04:36:21.797
16, 1.86, -1.05, 0.91, -0.84, 0.25, 0.41, 2.29, -2.86, 0.000, 0.000, 0.000, 0, 0, 0, 0, 0, 0, 0, 0, 0, 0, 1774154181801, 0, 04:36:21.801
17, 2.27, -0.29, 0.49, -0.31, -0.08, -0.08, 1.88, -2.90, 0.000, 0.000, 0.000, 0, 0, 0, 0, 0, 0, 0, 0, 0, 0, 1774154181805, 0, 04:36:21.805
18, 2.24, 0.60, 0.27, 0.15, -0.09, -0.73, 1.13, -2.73, 0.000, 0.000, 0.000, 0, 0, 0, 0, 0, 0, 0, 0, 0, 0, 1774154181809, 0, 04:36:21.809
19, 1.83, 1.46, 0.17, 0.25, 0.18, -1.43, 0.39, -2.08, 0.000, 0.000, 0.000, 0, 0, 0, 0, 0, 0, 0, 0, 0, 0, 1774154181813, 0, 04:36:21.813
20, 1.20, 2.16, 0.38, 0.15, 0.59, -1.98, -0.28, -1.20, 0.000, 0.000, 0.000, 0, 0, 0, 0, 0, 0, 0, 0, 0, 0, 1774154181817, 0, 04:36:21.817
21, 0.38, 2.56, 0.72, -0.02, 1.27, -2.47, -0.65, -0.28, 0.000, 0.000, 0.000, 0, 0, 0, 0, 0, 0, 0, 0, 0, 0, 1774154181821, 0, 04:36:21.821
22, -0.36, 2.60, 1.28, -0.27, 1.95, -2.39, -0.84, 0.62, 0.000, 0.000, 0.000, 0, 0, 0, 0, 0, 0, 0, 0, 0, 0, 1774154181825, 0, 04:36:21.825
23, -0.84, 2.09, 1.72, -0.42, 2.48, -1.97, -0.72, 1.10, 0.000, 0.000, 0.000, 0, 0, 0, 0, 0, 0, 0, 0, 0, 0, 1774154181829, 0, 04:36:21.829
24, -1.12, 1.40, 1.96, -0.34, 2.72, -1.20, -0.32, 1.31, 0.000, 0.000, 0.000, 0, 0, 0, 0, 0, 0, 0, 0, 0, 0, 1774154181833, 0, 04:36:21.833
25, -1.03, 0.53, 1.94, -0.02, 2.54, -0.13, -0.08, 1.31, 0.000, 0.000, 0.000, 0, 0, 0, 0, 0, 0, 0, 0, 0, 0, 1774154181837, 0, 04:36:21.837
26, -0.75, -0.26, 1.56, 0.55, 2.01, 0.91, 0.10, 1.04, 0.000, 0.000, 0.000, 0, 0, 0, 0, 0, 0, 0, 0, 0, 0, 1774154181841, 0, 04:36:21.841
27, -0.42, -1.01, 0.83, 1.22, 1.11, 1.71, 0.05, 0.69, 0.000, 0.000, 0.000, 0, 0, 0, 0, 0, 0, 0, 0, 0, 0, 1774154181845, 0, 04:36:21.845
28, -0.03, -1.31, -0.03, 1.93, 0.05, 2.39, -0.05, 0.39, 0.000, 0.000, 0.000, 0, 0, 0, 0, 0, 0, 0, 0, 0, 0, 1774154181849, 0, 04:36:21.849
29, 0.25, -1.31, -0.99, 2.38, -0.93, 2.55, -0.65, 0.20, 0.000, 0.000, 0.000, 0, 0, 0, 0, 0, 0, 0, 0, 0, 0, 1774154181853, 0, 04:36:21.853
30, 0.08, -1.08, -1.59, 2.58, -1.75, 2.46, -1.14, 0.39, 0.000, 0.000, 0.000, 0, 0, 0, 0, 0, 0, 0, 0, 0, 0, 1774154181857, 0, 04:36:21.857
31, -0.26, -0.62, -2.11, 2.40, -2.40, 2.09, -1.79, 0.76, 0.000, 0.000, 0.000, 0, 0, 0, 0, 0, 0, 0, 0, 0, 0, 1774154181861, 0, 04:36:21.861
32, -0.72, -0.11, -2.21, 1.80, -2.48, 1.48, -2.18, 1.19, 0.000, 0.000, 0.000, 0, 0, 0, 0, 0, 0, 0, 0, 0, 0, 1774154181865, 0, 04:36:21.865
33, -1.14, 0.28, -1.82, 1.08, -2.23, 0.91, -2.23, 1.69, 0.000, 0.000, 0.000, 0, 0, 0, 0, 0, 0, 0, 0, 0, 0, 1774154181869, 0, 04:36:21.869
34, -1.54, 0.52, -1.31, -0.11, -1.86, 0.47, -1.80, 1.93, 0.000, 0.000, 0.000, 0, 0, 0, 0, 0, 0, 0, 0, 0, 0, 1774154181873, 0, 04:36:21.873
35, -1.68, 0.41, -0.50, -0.96, -1.16, 0.33, -1.31, 1.98, 0.000, 0.000, 0.000, 0, 0, 0, 0, 0, 0, 0, 0, 0, 0, 1774154181877, 0, 04:36:21.877
36, -1.41, 0.12, 0.44, -1.68, -0.47, 0.42, -0.23, 1.70, 0.000, 0.000, 0.000, 0, 0, 0, 0, 0, 0, 0, 0, 0, 0, 1774154181881, 0, 04:36:21.881
37, -1.03, -0.35, 1.07, -1.95, -0.09, 0.65, 0.81, 1.11, 0.000, 0.000, 0.000, 0, 0, 0, 0, 0, 0, 0, 0, 0, 0, 1774154181885, 0, 04:36:21.885
38, -0.03, -0.71, 1.51, -1.87, -0.03, 0.91, 1.80, 0.23, 0.000, 0.000, 0.000, 0, 0, 0, 0, 0, 0, 0, 0, 0, 0, 1774154181889, 0, 04:36:21.889
39, 1.02, -0.76, 1.58, -1.39, 0.03, 1.12, 2.54, -0.72, 0.000, 0.000, 0.000, 0, 0, 0, 0, 0, 0, 0, 0, 0, 0, 1774154181893, 0, 04:36:21.893
40, 1.85, -0.79, 1.37, -0.82, -0.27, 1.03, 2.88, -1.56, 0.000, 0.000, 0.000, 0, 0, 0, 0, 0, 0, 0, 0, 0, 0, 1774154181897, 0, 04:36:21.897
41, 2.63, -0.43, 0.84, -0.12, -0.49, 0.74, 2.85, -2.09, 0.000, 0.000, 0.000, 0, 0, 0, 0, 0, 0, 0, 0, 0, 0, 1774154181901, 0, 04:36:21.901
42, 3.01, 0.34, 0.44, 0.45, -0.75, 0.21, 2.44, -2.30, 0.000, 0.000, 0.000, 0, 0, 0, 0, 0, 0, 0, 0, 0, 0, 1774154181905, 0, 04:36:21.905
43, 2.98, 1.10, 0.04, 0.76, -0.70, -0.58, 1.74, -2.01, 0.000, 0.000, 0.000, 0, 0, 0, 0, 0, 0, 0, 0, 0, 0, 1774154181909, 0, 04:36:21.909
44, 2.59, 1.91, -0.11, 0.87, -0.42, -1.47, 1.11, -1.40, 0.000, 0.000, 0.000, 0, 0, 0, 0, 0, 0, 0, 0, 0, 0, 1774154181913, 0, 04:36:21.913
45, 1.96, 2.48, -0.07, 0.70, 0.17, -2.14, 0.51, -0.51, 0.000, 0.000, 0.000, 0, 0, 0, 0, 0, 0, 0, 0, 0, 0, 1774154181917, 0, 04:36:21.917
46, 1.14, 2.74, 0.32, 0.37, 0.89, -2.64, 0.05, 0.36, 0.000, 0.000, 0.000, 0, 0, 0, 0, 0, 0, 0, 0, 0, 0, 1774154181921, 0, 04:36:21.921
47, 0.23, 2.61, 0.66, 0.02, 1.68, -2.75, 0.02, 1.06, 0.000, 0.000, 0.000, 0, 0, 0, 0, 0, 0, 0, 0, 0, 0, 1774154181925, 0, 04:36:21.925
48, -0.28, 2.01, 1.13, -0.28, 2.28, -2.45, 0.10, 1.53, 0.000, 0.000, 0.000, 0, 0, 0, 0, 0, 0, 0, 0, 0, 0, 1774154181929, 0, 04:36:21.929
49, -0.71, 1.23, 1.22, -0.32, 2.72, -1.63, 0.32, 1.59, 0.000, 0.000, 0.000, 0, 0, 0, 0, 0, 0, 0, 0, 0, 0, 1774154181933, 0, 04:36:21.933
50, -0.68, 0.25, 1.21, -0.15, 2.68, -0.74, 0.59, 1.34, 0.000, 0.000, 0.000, 0, 0, 0, 0, 0, 0, 0, 0, 0, 0, 1774154181937, 0, 04:36:21.937
51, -0.59, -0.64, 0.77, 0.42, 2.17, 0.29, 0.69, 0.98, 0.000, 0.000, 0.000, 0, 0, 0, 0, 0, 0, 0, 0, 0, 0, 1774154181941, 0, 04:36:21.941
52, -0.30, -1.48, 0.06, 0.95, 1.54, 1.14, 0.66, 0.46, 0.000, 0.000, 0.000, 0, 0, 0, 0, 0, 0, 0, 0, 0, 0, 1774154181945, 0, 04:36:21.945
53, -0.06, -2.04, -0.77, 1.60, 0.54, 1.54, 0.32, 0.12, 0.000, 0.000, 0.000, 0, 0, 0, 0, 0, 0, 0, 0, 0, 0, 1774154181949, 0, 04:36:21.949
54, 0.15, -2.02, -1.70, 2.02, -0.40, 1.74, -0.31, -0.14, 0.000, 0.000, 0.000, 0, 0, 0, 0, 0, 0, 0, 0, 0, 0, 1774154181953, 0, 04:36:21.953
55, -0.12, -1.66, -2.52, 2.03, -1.16, 1.52, -1.09, -0.10, 0.000, 0.000, 0.000, 0, 0, 0, 0, 0, 0, 0, 0, 0, 0, 1774154181957, 0, 04:36:21.957
56, -0.60, -1.32, -2.94, 1.69, -1.66, 1.29, -1.76, 0.21, 0.000, 0.000, 0.000, 0, 0, 0, 0, 0, 0, 0, 0, 0, 0, 1774154181961, 0, 04:36:21.961
57, -1.08, -0.92, -2.71, 1.09, -1.73, 0.74, -2.22, 0.54, 0.000, 0.000, 0.000, 0, 0, 0, 0, 0, 0, 0, 0, 0, 0, 1774154181965, 0, 04:36:21.965
58, -1.74, -0.47, -2.28, 0.19, -1.54, 0.21, -2.38, 1.02, 0.000, 0.000, 0.000, 0, 0, 0, 0, 0, 0, 0, 0, 0, 0, 1774154181969, 0, 04:36:21.969
59, -2.22, -0.34, -1.49, -0.85, -0.97, -0.18, -2.21, 1.16, 0.000, 0.000, 0.000, 0, 0, 0, 0, 0, 0, 0, 0, 0, 0, 1774154181973, 0, 04:36:21.973
60, -2.35, -0.42, -0.63, -1.78, -0.39, -0.22, -1.64, 1.23, 0.000, 0.000, 0.000, 0, 0, 0, 0, 0, 0, 0, 0, 0, 0, 1774154181977, 0, 04:36:21.977
61, -2.23, -0.62, 0.26, -2.38, 0.21, -0.04, -0.67, 0.87, 0.000, 0.000, 0.000, 0, 0, 0, 0, 0, 0, 0, 0, 0, 0, 1774154181981, 0, 04:36:21.981
62, -1.67, -0.95, 1.09, -2.67, 0.59, 0.33, 0.18, 0.27, 0.000, 0.000, 0.000, 0, 0, 0, 0, 0, 0, 0, 0, 0, 0, 1774154181985, 0, 04:36:21.985
63, -0.84, -1.34, 1.61, -2.59, 0.76, 0.70, 1.10, -0.68, 0.000, 0.000, 0.000, 0, 0, 0, 0, 0, 0, 0, 0, 0, 0, 1774154181989, 0, 04:36:21.989
64, 0.18, -1.42, 1.73, -2.18, 0.61, 1.03, 1.74, -1.58, 0.000, 0.000, 0.000, 0, 0, 0, 0, 0, 0, 0, 0, 0, 0, 1774154181993, 0, 04:36:21.993
65, 1.17, -1.18, 1.72, -1.37, 0.23, 1.08, 2.07, -2.23, 0.000, 0.000, 0.000, 0, 0, 0, 0, 0, 0, 0, 0, 0, 0, 1774154181997, 0, 04:36:21.997
66, 1.85, -0.71, 1.42, -0.66, -0.16, 0.95, 2.10, -2.75, 0.000, 0.000, 0.000, 0, 0, 0, 0, 0, 0, 0, 0, 0, 0, 1774154182001, 0, 04:36:22.001
67, 2.43, 0.11, 0.95, 0.07, -0.43, 0.44, 1.69, -2.79, 0.000, 0.000, 0.000, 0, 0, 0, 0, 0, 0, 0, 0, 0, 0, 1774154182005, 0, 04:36:22.005
68, 2.40, 0.96, 0.63, 0.53, -0.55, -0.34, 1.00, -2.46, 0.000, 0.000, 0.000, 0, 0, 0, 0, 0, 0, 0, 0, 0, 0, 1774154182009, 0, 04:36:22.009
69, 2.05, 1.96, 0.46, 0.62, -0.38, -0.97, 0.34, -1.68, 0.000, 0.000, 0.000, 0, 0, 0, 0, 0, 0, 0, 0, 0, 0, 1774154182013, 0, 04:36:22.013
70, 1.50, 2.59, 0.73, 0.64, 0.01, -1.63, -0.26, -0.78, 0.000, 0.000, 0.000, 0, 0, 0, 0, 0, 0, 0, 0, 0, 0, 1774154182017, 0, 04:36:22.017
71, 0.77, 3.11, 0.99, 0.43, 0.67, -2.04, -0.67, 0.19, 0.000, 0.000, 0.000, 0, 0, 0, 0, 0, 0, 0, 0, 0, 0, 1774154182021, 0, 04:36:22.021
72, 0.04, 2.91, 1.41, 0.18, 1.50, -2.06, -0.57, 0.95, 0.000, 0.000, 0.000, 0, 0, 0, 0, 0, 0, 0, 0, 0, 0, 1774154182025, 0, 04:36:22.025
73, -0.38, 2.50, 1.82, 0.00, 1.91, -1.61, -0.43, 1.59, 0.000, 0.000, 0.000, 0, 0, 0, 0, 0, 0, 0, 0, 0, 0, 1774154182029, 0, 04:36:22.029
74, -0.71, 1.81, 1.96, -0.03, 2.30, -1.04, -0.13, 1.75, 0.000, 0.000, 0.000, 0, 0, 0, 0, 0, 0, 0, 0, 0, 0, 1774154182033, 0, 04:36:22.033
75, -0.60, 0.95, 1.88, 0.45, 2.11, 0.03, 0.19, 1.68, 0.000, 0.000, 0.000, 0, 0, 0, 0, 0, 0, 0, 0, 0, 0, 1774154182037, 0, 04:36:22.037
76, -0.33, -0.02, 1.35, 0.96, 1.59, 0.92, 0.47, 1.33, 0.000, 0.000, 0.000, 0, 0, 0, 0, 0, 0, 0, 0, 0, 0, 1774154182041, 0, 04:36:22.041
77, 0.08, -0.73, 0.71, 1.55, 0.70, 1.81, 0.48, 1.00, 0.000, 0.000, 0.000, 0, 0, 0, 0, 0, 0, 0, 0, 0, 0, 1774154182045, 0, 04:36:22.045
78, 0.43, -1.18, -0.30, 2.20, -0.22, 2.28, 0.27, 0.73, 0.000, 0.000, 0.000, 0, 0, 0, 0, 0, 0, 0, 0, 0, 0, 1774154182049, 0, 04:36:22.049
79, 0.52, -1.31, -1.22, 2.68, -1.12, 2.37, -0.19, 0.54, 0.000, 0.000, 0.000, 0, 0, 0, 0, 0, 0, 0, 0, 0, 0, 1774154182053, 0, 04:36:22.053
80, 0.51, -1.07, -2.10, 2.81, -1.93, 2.18, -0.83, 0.59, 0.000, 0.000, 0.000, 0, 0, 0, 0, 0, 0, 0, 0, 0, 0, 1774154182057, 0, 04:36:22.057
81, 0.13, -0.70, -2.60, 2.47, -2.47, 1.76, -1.47, 0.91, 0.000, 0.000, 0.000, 0, 0, 0, 0, 0, 0, 0, 0, 0, 0, 1774154182061, 0, 04:36:22.061
82, -0.49, -0.27, -2.75, 1.87, -2.62, 1.07, -1.70, 1.32, 0.000, 0.000, 0.000, 0, 0, 0, 0, 0, 0, 0, 0, 0, 0, 1774154182065, 0, 04:36:22.065
83, -1.07, 0.13, -2.35, 0.80, -2.32, 0.44, -1.87, 1.72, 0.000, 0.000, 0.000, 0, 0, 0, 0, 0, 0, 0, 0, 0, 0, 1774154182069, 0, 04:36:22.069
84, -1.44, 0.17, -1.78, -0.22, -1.75, -0.01, -1.57, 1.95, 0.000, 0.000, 0.000, 0, 0, 0, 0, 0, 0, 0, 0, 0, 0, 1774154182073, 0, 04:36:22.073
85, -1.66, 0.10, -0.93, -1.24, -0.95, -0.15, -0.96, 1.84, 0.000, 0.000, 0.000, 0, 0, 0, 0, 0, 0, 0, 0, 0, 0, 1774154182077, 0, 04:36:22.077
86, -1.52, -0.33, -0.06, -1.92, -0.27, -0.05, -0.11, 1.50, 0.000, 0.000, 0.000, 0, 0, 0, 0, 0, 0, 0, 0, 0, 0, 1774154182081, 0, 04:36:22.081
87, -1.03, -0.70, 0.63, -2.19, 0.14, -0.01, 0.96, 0.70, 0.000, 0.000, 0.000, 0, 0, 0, 0, 0, 0, 0, 0, 0, 0, 1774154182085, 0, 04:36:22.085
88, -0.23, -1.15, 0.96, -2.14, 0.36, 0.51, 1.87, -0.12, 0.000, 0.000, 0.000, 0, 0, 0, 0, 0, 0, 0, 0, 0, 0, 1774154182089, 0, 04:36:22.089
89, 0.73, -1.29, 1.11, -1.86, 0.42, 0.59, 2.57, -1.19, 0.000, 0.000, 0.000, 0, 0, 0, 0, 0, 0, 0, 0, 0, 0, 1774154182093, 0, 04:36:22.093
90, 1.53, -1.28, 0.96, -1.31, 0.10, 0.60, 2.87, -1.94, 0.000, 0.000, 0.000, 0, 0, 0, 0, 0, 0, 0, 0, 0, 0, 1774154182097, 0, 04:36:22.097
91, 2.22, -0.86, 0.53, -0.63, -0.12, 0.26, 2.74, -2.68, 0.000, 0.000, 0.000, 0, 0, 0, 0, 0, 0, 0, 0, 0, 0, 1774154182101, 0, 04:36:22.101
92, 2.57, -0.29, 0.12, -0.03, -0.28, -0.27, 2.27, -2.66, 0.000, 0.000, 0.000, 0, 0, 0, 0, 0, 0, 0, 0, 0, 0, 1774154182105, 0, 04:36:22.105
93, 2.57, 0.57, -0.18, 0.21, -0.32, -1.01, 1.61, -2.58, 0.000, 0.000, 0.000, 0, 0, 0, 0, 0, 0, 0, 0, 0, 0, 1774154182109, 0, 04:36:22.109
94, 2.17, 1.34, -0.29, 0.33, -0.02, -1.87, 0.77, -1.97, 0.000, 0.000, 0.000, 0, 0, 0, 0, 0, 0, 0, 0, 0, 0, 1774154182113, 0, 04:36:22.113
