%OpenBCI Raw EXG Data
%Number of channels = 8
%Sample Rate = 250 Hz
%Board = OpenBCI_GUI$BoardCytonSerial
Sample Index, EXG Channel 0, EXG Channel 1, EXG Channel 2, EXG Channel 3, EXG Channel 4, EXG Channel 5, EXG Channel 6, EXG Channel 7, Accel Channel 0, Accel Channel 1, Accel Channel 2, Not Used, Digital Channel 0 (D11), Digital Channel 1 (D12), Digital Channel 2 (D13), Digital Channel 3 (D17), Not Used, Digital Channel 4 (D18), Analog Channel 0, Analog Channel 1, Analog Channel 2, Timestamp, Marker Channel, Timestamp (Formatted)
0, -1.21, -0.61, -2.42, 1.33, -2.05, 1.21, -2.64, 0.73, 0.000, 0.000, 0.000, 0, 0, 0, 0, 0, 0, 0, 0, 0, 0, 1774153947749, 0, 04:32:27.749
1, -1.72, -0.17, -1.91, 0.38, -1.83, 0.68, -2.62, 1.26, 0.000, 0.000, 0.000, 0, 0, 0, 0, 0, 0, 0, 0, 0, 0, 1774153947753, 0, 04:32:27.753
2, -2.08, 0.09, -1.20, -0.50, -1.43, 0.32, -2.37, 1.50, 0.000, 0.000, 0.000, 0, 0, 0, 0, 0, 0, 0, 0, 0, 0, 1774153947757, 0, 04:32:27.757
3, -2.22, -0.03, -0.32, -1.43, -0.69, 0.20, -1.70, 1.49, 0.000, 0.000, 0.000, 0, 0, 0, 0, 0, 0, 0, 0, 0, 0, 1774153947761, 0, 04:32:27.761
4, -1.99, -0.23, 0.66, -1.99, -0.33, 0.38, -0.65, 1.29, 0.000, 0.000, 0.000, 0, 0, 0, 0, 0, 0, 0, 0, 0, 0, 1774153947765, 0, 04:32:27.765
5, -1.39, -0.51, 1.25, -2.23, 0.07, 0.72, 0.32, 0.67, 0.000, 0.000, 0.000, 0, 0, 0, 0, 0, 0, 0, 0, 0, 0, 1774153947769, 0, 04:32:27.769
6, -0.41, -0.83, 1.81, -2.12, 0.26, 0.98, 1.41, -0.22, 0.000, 0.000, 0.000, 0, 0, 0, 0, 0, 0, 0, 0, 0, 0, 1774153947773, 0, 04:32:27.773
7, 0.51, -0.92, 1.98, -1.53, 0.12, 1.30, 1.99, -1.05, 0.000, 0.000, 0.000, 0, 0, 0, 0, 0, 0, 0, 0, 0, 0, 1774153947777, 0, 04:32:27.777
8, 1.52, -0.85, 1.77, -0.87, -0.20, 1.28, 2.38, -1.78, 0.000, 0.000, 0.000, 0, 0, 0, 0, 0, 0, 0, 0, 0, 0, 1774153947781, 0, 04:32:27.781
9, 2.32, -0.31, 1.32, -0.12, -0.55, 1.08, 2.45, -2.13, 0.000, 0.000, 0.000, 0, 0, 0, 0, 0, 0, 0, 0, 0, 0, 1774153947785, 0, 04:32:27.785
10, 2.85, 0.46, 0.83, 0.52, -0.94, 0.62, 2.03, -2.23, 0.000, 0.000, 0.000, 0, 0, 0, 0, 0, 0, 0, 0, 0, 0, 1774153947789, 0, 04:32:27.789
11, 2.92, 1.30, 0.44, 1.00, -0.81, -0.25, 1.48, -1.94, 0.000, 0.000, 0.000, 0, 0, 0, 0, 0, 0, 0, 0, 0, 0, 1774153947793, 0, 04:32:27.793
12, 2.52, 2.14, 0.29, 0.99, -0.66, -0.99, 0.80, -1.22, 0.000, 0.000, 0.000, 0, 0, 0, 0, 0, 0, 0, 0, 0, 0, 1774153947797, 0, 04:32:27.797
13, 1.85, 2.79, 0.40, 1.01, -0.09, -1.60, 0.25, -0.45, 0.000, 0.000, 0.000, 0, 0, 0, 0, 0, 0, 0, 0, 0, 0, 1774153947801, 0, 04:32:27.801
14, 1.08, 3.07, 0.62, 0.61, 0.45, -2.12, -0.10, 0.54, 0.000, 0.000, 0.000, 0, 0, 0, 0, 0, 0, 0, 0, 0, 0, 1774153947805, 0, 04:32:27.805
15, 0.42, 3.00, 1.07, 0.31, 1.30, -2.26, -0.14, 1.36, 0.000, 0.000, 0.000, 0, 0, 0, 0, 0, 0, 0, 0, 0, 0, 1774153947809, 0, 04:32:27.809
16, -0.13, 2.55, 1.48, 0.14, 1.87, -1.89, 0.05, 1.85, 0.000, 0.000, 0.000, 0, 0, 0, 0, 0, 0, 0, 0, 0, 0, 1774153947813, 0, 04:32:27.813
17, -0.42, 1.66, 1.53, 0.17, 2.26, -1.32, 0.43, 1.98, 0.000, 0.000, 0.000, 0, 0, 0, 0, 0, 0, 0, 0, 0, 0, 1774153947817, 0, 04:32:27.817
18, -0.48, 0.63, 1.34, 0.32, 2.21, -0.44, 0.68, 1.85, 0.000, 0.000, 0.000, 0, 0, 0, 0, 0, 0, 0, 0, 0, 0, 1774153947821, 0, 04:32:27.821
19, -0.22, -0.32, 0.87, 0.83, 1.78, 0.56, 0.88, 1.49, 0.000, 0.000, 0.000, 0, 0, 0, 0, 0, 0, 0, 0, 0, 0, 1774153947825, 0, 04:32:27.825
20, 0.09, -1.06, 0.21, 1.46, 0.97, 1.37, 0.85, 1.01, 0.000, 0.000, 0.000, 0, 0, 0, 0, 0, 0, 0, 0, 0, 0, 1774153947829, 0, 04:32:27.829
21, 0.35, -1.56, -0.78, 2.01, 0.08, 1.90, 0.65, 0.65, 0.000, 0.000, 0.000, 0, 0, 0, 0, 0, 0, 0, 0, 0, 0, 1774153947833, 0, 04:32:27.833
22, 0.47, -1.64, -1.69, 2.44, -0.85, 1.97, 0.08, 0.41, 0.000, 0.000, 0.000, 0, 0, 0, 0, 0, 0, 0, 0, 0, 0, 1774153947837, 0, 04:32:27.837
23, 0.28, -1.46, -2.54, 2.61, -1.57, 1.79, -0.72, 0.44, 0.000, 0.000, 0.000, 0, 0, 0, 0, 0, 0, 0, 0, 0, 0, 1774153947841, 0, 04:32:27.841
24, -0.11, -1.07, -2.93, 2.14, -1.98, 1.31, -1.37, 0.73, 0.000, 0.000, 0.000, 0, 0, 0, 0, 0, 0, 0, 0, 0, 0, 1774153947845, 0, 04:32:27.845
25, -0.72, -0.63, -3.03, 1.38, -2.07, 0.69, -1.79, 1.06, 0.000, 0.000, 0.000, 0, 0, 0, 0, 0, 0, 0, 0, 0, 0, 1774153947849, 0, 04:32:27.849
26, -1.34, -0.33, -2.68, 0.39, -1.82, 0.12, -1.90, 1.46, 0.000, 0.000, 0.000, 0, 0, 0, 0, 0, 0, 0, 0, 0, 0, 1774153947853, 0, 04:32:27.853
27, -1.83, -0.30, -1.96, -0.63, -1.17, -0.32, -1.69, 1.55, 0.000, 0.000, 0.000, 0, 0, 0, 0, 0, 0, 0, 0, 0, 0, 1774153947857, 0, 04:32:27.857
28, -2.17, -0.42, -1.09, -1.64, -0.36, -0.42, -1.08, 1.43, 0.000, 0.000, 0.000, 0, 0, 0, 0, 0, 0, 0, 0, 0, 0, 1774153947861, 0, 04:32:27.861
29, -2.01, -0.70, -0.02, -2.30, 0.25, -0.32, -0.26, 1.10, 0.000, 0.000, 0.000, 0, 0, 0, 0, 0, 0, 0, 0, 0, 0, 1774153947865, 0, 04:32:27.865
30, -1.53, -1.13, 0.64, -2.66, 0.49, -0.06, 0.77, 0.38, 0.000, 0.000, 0.000, 0, 0, 0, 0, 0, 0, 0, 0, 0, 0, 1774153947869, 0, 04:32:27.869
31, -0.76, -1.53, 1.16, -2.65, 0.84, 0.35, 1.61, -0.45, 0.000, 0.000, 0.000, 0, 0, 0, 0, 0, 0, 0, 0, 0, 0, 1774153947873, 0, 04:32:27.873
32, 0.19, -1.67, 1.26, -2.13, 0.82, 0.64, 2.20, -1.54, 0.000, 0.000, 0.000, 0, 0, 0, 0, 0, 0, 0, 0, 0, 0, 1774153947877, 0, 04:32:27.877
33, 1.19, -1.55, 1.11, -1.62, 0.51, 0.69, 2.51, -2.32, 0.000, 0.000, 0.000, 0, 0, 0, 0, 0, 0, 0, 0, 0, 0, 1774153947881, 0, 04:32:27.881
34, 1.80, -1.11, 0.84, -0.88, 0.18, 0.40, 2.24, -2.82, 0.000, 0.000, 0.000, 0, 0, 0, 0, 0, 0, 0, 0, 0, 0, 1774153947885, 0, 04:32:27.885
35, 2.27, -0.35, 0.54, -0.22, -0.05, -0.03, 1.83, -2.96, 0.000, 0.000, 0.000, 0, 0, 0, 0, 0, 0, 0, 0, 0, 0, 1774153947889, 0, 04:32:27.889
36, 2.13, 0.61, 0.20, 0.21, -0.06, -0.76, 1.14, -2.67, 0.000, 0.000, 0.000, 0, 0, 0, 0, 0, 0, 0, 0, 0, 0, 1774153947893, 0, 04:32:27.893
37, 1.81, 1.46, 0.13, 0.37, 0.08, -1.44, 0.41, -1.99, 0.000, 0.000, 0.000, 0, 0, 0, 0, 0, 0, 0, 0, 0, 0, 1774153947897, 0, 04:32:27.897
38, 1.17, 2.28, 0.37, 0.23, 0.67, -2.11, -0.34, -1.07, 0.000, 0.000, 0.000, 0, 0, 0, 0, 0, 0, 0, 0, 0, 0, 1774153947901, 0, 04:32:27.901
39, 0.40, 2.55, 0.78, 0.01, 1.25, -2.35, -0.69, -0.12, 0.000, 0.000, 0.000, 0, 0, 0, 0, 0, 0, 0, 0, 0, 0, 1774153947905, 0, 04:32:27.905
40, -0.32, 2.51, 1.33, -0.34, 1.88, -2.33, -0.80, 0.62, 0.000, 0.000, 0.000, 0, 0, 0, 0, 0, 0, 0, 0, 0, 0, 1774153947909, 0, 04:32:27.909
41, -0.85, 2.11, 1.72, -0.41, 2.51, -1.87, -0.67, 1.12, 0.000, 0.000, 0.000, 0, 0, 0, 0, 0, 0, 0, 0, 0, 0, 1774153947913, 0, 04:32:27.913
42, -1.14, 1.39, 2.00, -0.33, 2.63, -1.08, -0.34, 1.46, 0.000, 0.000, 0.000, 0, 0, 0, 0, 0, 0, 0, 0, 0, 0, 1774153947917, 0, 04:32:27.917
43, -1.09, 0.52, 1.96, 0.05, 2.54, -0.14, -0.04, 1.26, 0.000, 0.000, 0.000, 0, 0, 0, 0, 0, 0, 0, 0, 0, 0, 1774153947921, 0, 04:32:27.921
44, -0.74, -0.26, 1.49, 0.48, 2.00, 0.89, 0.13, 1.10, 0.000, 0.000, 0.000, 0, 0, 0, 0, 0, 0, 0, 0, 0, 0, 1774153947925, 0, 04:32:27.925
45, -0.40, -1.06, 0.80, 1.22, 1.27, 1.88, 0.17, 0.72, 0.000, 0.000, 0.000, 0, 0, 0, 0, 0, 0, 0, 0, 0, 0, 1774153947929, 0, 04:32:27.929
46, -0.09, -1.33, -0.09, 1.99, 0.09, 2.39, -0.14, 0.44, 0.000, 0.000, 0.000, 0, 0, 0, 0, 0, 0, 0, 0, 0, 0, 1774153947933, 0, 04:32:27.933
47, 0.11, -1.37, -1.01, 2.32, -1.03, 2.55, -0.61, 0.29, 0.000, 0.000, 0.000, 0, 0, 0, 0, 0, 0, 0, 0, 0, 0, 1774153947937, 0, 04:32:27.937
48, 0.07, -1.17, -1.67, 2.64, -1.82, 2.51, -1.18, 0.30, 0.000, 0.000, 0.000, 0, 0, 0, 0, 0, 0, 0, 0, 0, 0, 1774153947941, 0, 04:32:27.941
49, -0.16, -0.58, -2.15, 2.44, -2.31, 2.04, -1.79, 0.70, 0.000, 0.000, 0.000, 0, 0, 0, 0, 0, 0, 0, 0, 0, 0, 1774153947945, 0, 04:32:27.945
50, -0.65, -0.05, -2.22, 1.77, -2.45, 1.54, -2.15, 1.25, 0.000, 0.000, 0.000, 0, 0, 0, 0, 0, 0, 0, 0, 0, 0, 1774153947949, 0, 04:32:27.949
51, -1.13, 0.24, -2.01, 0.92, -2.16, 0.92, -2.18, 1.67, 0.000, 0.000, 0.000, 0, 0, 0, 0, 0, 0, 0, 0, 0, 0, 1774153947953, 0, 04:32:27.953
52, -1.58, 0.46, -1.12, -0.09, -1.70, 0.50, -1.86, 1.99, 0.000, 0.000, 0.000, 0, 0, 0, 0, 0, 0, 0, 0, 0, 0, 1774153947957, 0, 04:32:27.957
53, -1.69, 0.31, -0.42, -0.97, -1.13, 0.41, -1.13, 2.06, 0.000, 0.000, 0.000, 0, 0, 0, 0, 0, 0, 0, 0, 0, 0, 1774153947961, 0, 04:32:27.961
54, -1.46, 0.04, 0.56, -1.64, -0.58, 0.33, -0.11, 1.70, 0.000, 0.000, 0.000, 0, 0, 0, 0, 0, 0, 0, 0, 0, 0, 1774153947965, 0, 04:32:27.965
55, -0.94, -0.25, 1.06, -1.96, -0.04, 0.62, 0.88, 1.00, 0.000, 0.000, 0.000, 0, 0, 0, 0, 0, 0, 0, 0, 0, 0, 1774153947969, 0, 04:32:27.969
56, -0.05, -0.70, 1.48, -1.88, 0.05, 0.89, 1.81, 0.24, 0.000, 0.000, 0.000, 0, 0, 0, 0, 0, 0, 0, 0, 0, 0, 1774153947973, 0, 04:32:27.973
57, 0.90, -0.92, 1.46, -1.44, -0.02, 1.02, 2.58, -0.70, 0.000, 0.000, 0.000, 0, 0, 0, 0, 0, 0, 0, 0, 0, 0, 1774153947977, 0, 04:32:27.977
58, 1.88, -0.78, 1.34, -0.81, -0.25, 1.15, 2.94, -1.55, 0.000, 0.000, 0.000, 0, 0, 0, 0, 0, 0, 0, 0, 0, 0, 1774153947981, 0, 04:32:27.981
59, 2.62, -0.42, 0.84, -0.02, -0.57, 0.77, 2.90, -2.03, 0.000, 0.000, 0.000, 0, 0, 0, 0, 0, 0, 0, 0, 0, 0, 1774153947985, 0, 04:32:27.985
60, 2.98, 0.24, 0.37, 0.46, -0.73, 0.24, 2.54, -2.20, 0.000, 0.000, 0.000, 0, 0, 0, 0, 0, 0, 0, 0, 0, 0, 1774153947989, 0, 04:32:27.989
61, 3.03, 1.11, -0.02, 0.85, -0.69, -0.58, 1.75, -1.87, 0.000, 0.000, 0.000, 0, 0, 0, 0, 0, 0, 0, 0, 0, 0, 1774153947993, 0, 04:32:27.993
62, 2.57, 1.82, -0.09, 0.88, -0.35, -1.42, 1.19, -1.32, 0.000, 0.000, 0.000, 0, 0, 0, 0, 0, 0, 0, 0, 0, 0, 1774153947997, 0, 04:32:27.997
63, 1.89, 2.44, -0.01, 0.70, 0.17, -2.21, 0.59, -0.45, 0.000, 0.000, 0.000, 0, 0, 0, 0, 0, 0, 0, 0, 0, 0, 1774153948001, 0, 04:32:28.001
64, 1.07, 2.76, 0.34, 0.30, 0.87, -2.68, 0.13, 0.25, 0.000, 0.000, 0.000, 0, 0, 0, 0, 0, 0, 0, 0, 0, 0, 1774153948005, 0, 04:32:28.005
65, 0.26, 2.66, 0.64, -0.07, 1.64, -2.71, -0.01, 1.08, 0.000, 0.000, 0.000, 0, 0, 0, 0, 0, 0, 0, 0, 0, 0, 1774153948009, 0, 04:32:28.009
66, -0.35, 2.14, 1.06, -0.31, 2.37, -2.33, 0.05, 1.48, 0.000, 0.000, 0.000, 0, 0, 0, 0, 0, 0, 0, 0, 0, 0, 1774153948013, 0, 04:32:28.013
67, -0.72, 1.20, 1.20, -0.28, 2.72, -1.67, 0.31, 1.58, 0.000, 0.000, 0.000, 0, 0, 0, 0, 0, 0, 0, 0, 0, 0, 1774153948017, 0, 04:32:28.017
68, -0.79, 0.28, 1.17, -0.01, 2.67, -0.78, 0.61, 1.48, 0.000, 0.000, 0.000, 0, 0, 0, 0, 0, 0, 0, 0, 0, 0, 1774153948021, 0, 04:32:28.021
69, -0.59, -0.76, 0.76, 0.32, 2.25, 0.17, 0.75, 1.06, 0.000, 0.000, 0.000, 0, 0, 0, 0, 0, 0, 0, 0, 0, 0, 1774153948025, 0, 04:32:28.025
70, -0.39, -1.39, 0.11, 0.98, 1.54, 1.08, 0.67, 0.44, 0.000, 0.000, 0.000, 0, 0, 0, 0, 0, 0, 0, 0, 0, 0, 1774153948029, 0, 04:32:28.029
71, -0.14, -1.98, -0.74, 1.51, 0.64, 1.60, 0.31, 0.16, 0.000, 0.000, 0.000, 0, 0, 0, 0, 0, 0, 0, 0, 0, 0, 1774153948033, 0, 04:32:28.033
72, -0.06, -1.94, -1.62, 1.96, -0.42, 1.83, -0.27, -0.06, 0.000, 0.000, 0.000, 0, 0, 0, 0, 0, 0, 0, 0, 0, 0, 1774153948037, 0, 04:32:28.037
73, -0.21, -1.81, -2.42, 2.11, -1.17, 1.68, -0.99, -0.09, 0.000, 0.000, 0.000, 0, 0, 0, 0, 0, 0, 0, 0, 0, 0, 1774153948041, 0, 04:32:28.041
74, -0.54, -1.26, -2.73, 1.74, -1.61, 1.26, -1.77, 0.17, 0.000, 0.000, 0.000, 0, 0, 0, 0, 0, 0, 0, 0, 0, 0, 1774153948045, 0, 04:32:28.045
75, -1.17, -0.84, -2.76, 1.11, -1.79, 0.76, -2.18, 0.54, 0.000, 0.000, 0.000, 0, 0, 0, 0, 0, 0, 0, 0, 0, 0, 1774153948049, 0, 04:32:28.049
76, -1.74, -0.53, -2.34, 0.27, -1.50, 0.27, -2.30, 1.00, 0.000, 0.000, 0.000, 0, 0, 0, 0, 0, 0, 0, 0, 0, 0, 1774153948053, 0, 04:32:28.053
77, -2.13, -0.32, -1.60, -0.79, -0.99, -0.00, -2.17, 1.26, 0.000, 0.000, 0.000, 0, 0, 0, 0, 0, 0, 0, 0, 0, 0, 1774153948057, 0, 04:32:28.057
78, -2.40, -0.31, -0.64, -1.76, -0.43, -0.15, -1.50, 1.29, 0.000, 0.000, 0.000, 0, 0, 0, 0, 0, 0, 0, 0, 0, 0, 1774153948061, 0, 04:32:28.061
79, -2.19, -0.54, 0.42, -2.38, 0.22, 0.06, -0.75, 0.93, 0.000, 0.000, 0.000, 0, 0, 0, 0, 0, 0, 0, 0, 0, 0, 1774153948065, 0, 04:32:28.065
80, -1.72, -0.94, 1.14, -2.71, 0.61, 0.28, 0.27, 0.22, 0.000, 0.000, 0.000, 0, 0, 0, 0, 0, 0, 0, 0, 0, 0, 1774153948069, 0, 04:32:28.069
81, -0.84, -1.23, 1.64, -2.53, 0.76, 0.65, 1.15, -0.56, 0.000, 0.000, 0.000, 0, 0, 0, 0, 0, 0, 0, 0, 0, 0, 1774153948073, 0, 04:32:28.073
82, 0.13, -1.31, 1.78, -2.05, 0.55, 1.03, 1.91, -1.48, 0.000, 0.000, 0.000, 0, 0, 0, 0, 0, 0, 0, 0, 0, 0, 1774153948077, 0, 04:32:28.077
83, 1.15, -1.16, 1.78, -1.43, 0.28, 1.17, 2.24, -2.27, 0.000, 0.000, 0.000, 0, 0, 0, 0, 0, 0, 0, 0, 0, 0, 1774153948081, 0, 04:32:28.081
84, 2.00, -0.73, 1.40, -0.58, -0.03, 0.96, 2.08, -2.76, 0.000, 0.000, 0.000, 0, 0, 0, 0, 0, 0, 0, 0, 0, 0, 1774153948085, 0, 04:32:28.085
85, 2.33, 0.07, 0.91, 0.08, -0.29, 0.50, 1.73, -2.71, 0.000, 0.000, 0.000, 0, 0, 0, 0, 0, 0, 0, 0, 0, 0, 1774153948089, 0, 04:32:28.089
86, 2.48, 1.05, 0.64, 0.58, -0.42, -0.36, 1.12, -2.36, 0.000, 0.000, 0.000, 0, 0, 0, 0, 0, 0, 0, 0, 0, 0, 1774153948093, 0, 04:32:28.093
87, 2.14, 2.01, 0.54, 0.78, -0.36, -0.94, 0.36, -1.65, 0.000, 0.000, 0.000, 0, 0, 0, 0, 0, 0, 0, 0, 0, 0, 1774153948097, 0, 04:32:28.097
88, 1.49, 2.74, 0.69, 0.69, 0.17, -1.63, -0.21, -0.78, 0.000, 0.000, 0.000, 0, 0, 0, 0, 0, 0, 0, 0, 0, 0, 1774153948101, 0, 04:32:28.101
89, 0.72, 3.09, 0.98, 0.42, 0.76, -2.10, -0.53, 0.23, 0.000, 0.000, 0.000, 0, 0, 0, 0, 0, 0, 0, 0, 0, 0, 1774153948105, 0, 04:32:28.105
90, 0.10, 3.03, 1.47, 0.22, 1.46, -2.00, -0.67, 0.99, 0.000, 0.000, 0.000, 0, 0, 0, 0, 0, 0, 0, 0, 0, 0, 1774153948109, 0, 04:32:28.109
91, -0.43, 2.61, 1.90, -0.01, 1.95, -1.64, -0.44, 1.57, 0.000, 0.000, 0.000, 0, 0, 0, 0, 0, 0, 0, 0, 0, 0, 1774153948113, 0, 04:32:28.113
92, -0.62, 1.78, 1.96, 0.04, 2.16, -0.90, 0.01, 1.84, 0.000, 0.000, 0.000, 0, 0, 0, 0, 0, 0, 0, 0, 0, 0, 1774153948117, 0, 04:32:28.117
93, -0.56, 0.89, 1.85, 0.28, 2.12, 0.07, 0.25, 1.77, 0.000, 0.000, 0.000, 0, 0, 0, 0, 0, 0, 0, 0, 0, 0, 1774153948121, 0, 04:32:28.121
94, -0.20, -0.05, 1.43, 0.97, 1.67, 1.01, 0.57, 1.37, 0.000, 0.000, 0.000, 0, 0, 0, 0, 0, 0, 0, 0, 0, 0, 1774153948125, 0, 04:32:28.125
95, 0.09, -0.79, 0.67, 1.61, 0.83, 1.73, 0.58, 1.01, 0.000, 0.000, 0.000, 0, 0, 0, 0, 0, 0, 0, 0, 0, 0, 1774153948129, 0, 04:32:28.129
96, 0.39, -1.13, -0.17, 2.30, -0.16, 2.32, 0.31, 0.71, 0.000, 0.000, 0.000, 0, 0, 0, 0, 0, 0, 0, 0, 0, 0, 1774153948133, 0, 04:32:28.133
97, 0.60, -1.22, -1.19, 2.62, -1.16, 2.39, -0.15, 0.62, 0.000, 0.000, 0.000, 0, 0, 0, 0, 0, 0, 0, 0, 0, 0, 1774153948137, 0, 04:32:28.137
98, 0.51, -0.98, -2.01, 2.79, -1.95, 2.28, -0.68, 0.62, 0.000, 0.000, 0.000, 0, 0, 0, 0, 0, 0, 0, 0, 0, 0, 1774153948141, 0, 04:32:28.141
99, 0.22, -0.59, -2.57, 2.55, -2.41, 1.83, -1.32, 0.96, 0.000, 0.000, 0.000, 0, 0, 0, 0, 0, 0, 0, 0, 0, 0, 1774153948145, 0, 04:32:28.145
100, -0.33, -0.17, -2.67, 1.82, -2.53, 1.07, -1.71, 1.38, 0.000, 0.000, 0.000, 0, 0, 0, 0, 0, 0, 0, 0, 0, 0, 1774153948149, 0, 04:32:28.149
101, -0.93, 0.17, -2.41, 0.95, -2.23, 0.49, -1.76, 1.75, 0.000, 0.000, 0.000, 0, 0, 0, 0, 0, 0, 0, 0, 0, 0, 1774153948153, 0, 04:32:28.153
102, -1.34, 0.25, -1.66, -0.15, -1.58, 0.03, -1.56, 2.01, 0.000, 0.000, 0.000, 0, 0, 0, 0, 0, 0, 0, 0, 0, 0, 1774153948157, 0, 04:32:28.157
103, -1.68, 0.14, -0.84, -1.11, -0.96, -0.15, -0.94, 1.88, 0.000, 0.000, 0.000, 0, 0, 0, 0, 0, 0, 0, 0, 0, 0, 1774153948161, 0, 04:32:28.161
104, -1.52, -0.26, 0.04, -1.81, -0.30, -0.07, 0.10, 1.52, 0.000, 0.000, 0.000, 0, 0, 0, 0, 0, 0, 0, 0, 0, 0, 1774153948165, 0, 04:32:28.165
105, -1.04, -0.66, 0.66, -2.17, 0.19, 0.12, 1.03, 0.90, 0.000, 0.000, 0.000, 0, 0, 0, 0, 0, 0, 0, 0, 0, 0, 1774153948169, 0, 04:32:28.169
106, -0.23, -1.06, 1.07, -2.19, 0.41, 0.45, 1.98, -0.02, 0.000, 0.000, 0.000, 0, 0, 0, 0, 0, 0, 0, 0, 0, 0, 1774153948173, 0, 04:32:28.173
107, 0.65, -1.35, 1.17, -1.86, 0.38, 0.68, 2.56, -1.04, 0.000, 0.000, 0.000, 0, 0, 0, 0, 0, 0, 0, 0, 0, 0, 1774153948177, 0, 04:32:28.177
108, 1.65, -1.26, 1.01, -1.25, 0.20, 0.67, 2.89, -1.89, 0.000, 0.000, 0.000, 0, 0, 0, 0, 0, 0, 0, 0, 0, 0, 1774153948181, 0, 04:32:28.181
109, 2.30, -0.91, 0.52, -0.54, -0.09, 0.28, 2.70, -2.60, 0.000, 0.000, 0.000, 0, 0, 0, 0, 0, 0, 0, 0, 0, 0, 1774153948185, 0, 04:32:28.185
110, 2.58, -0.24, 0.21, -0.06, -0.26, -0.16, 2.28, -2.74, 0.000, 0.000, 0.000, 0, 0, 0, 0, 0, 0, 0, 0, 0, 0, 1774153948189, 0, 04:32:28.189
111, 2.54, 0.55, -0.14, 0.33, -0.27, -0.90, 1.54, -2.46, 0.000, 0.000, 0.000, 0, 0, 0, 0, 0, 0, 0, 0, 0, 0, 1774153948193, 0, 04:32:28.193
112, 2.16, 1.49, -0.29, 0.39, 0.07, -1.69, 0.76, -1.74, 0.000, 0.000, 0.000, 0, 0, 0, 0, 0, 0, 0, 0, 0, 0, 1774153948197, 0, 04:32:28.197
113, 1.45, 2.11, -0.19, 0.23, 0.63, -2.45, 0.12, -1.06, 0.000, 0.000, 0.000, 0, 0, 0, 0, 0, 0, 0, 0, 0, 0, 1774153948201, 0, 04:32:28.201
114, 0.66, 2.40, 0.28, -0.14, 1.31, -2.87, -0.43, -0.15, 0.000, 0.000, 0.000, 0, 0, 0, 0, 0, 0, 0, 0, 0, 0, 1774153948205, 0, 04:32:28.205
115, -0.10, 2.38, 0.84, -0.52, 1.97, -2.88, -0.56, 0.57, 0.000, 0.000, 0.000, 0, 0, 0, 0, 0, 0, 0, 0, 0, 0, 1774153948209, 0, 04:32:28.209
116, -0.82, 1.80, 1.30, -0.62, 2.69, -2.47, -0.40, 1.04, 0.000, 0.000, 0.000, 0, 0, 0, 0, 0, 0, 0, 0, 0, 0, 1774153948213, 0, 04:32:28.213
117, -1.21, 1.17, 1.51, -0.59, 2.97, -1.65, -0.19, 1.17, 0.000, 0.000, 0.000, 0, 0, 0, 0, 0, 0, 0, 0, 0, 0, 1774153948217, 0, 04:32:28.217
118, -1.28, 0.09, 1.57, -0.43, 2.83, -0.61, -0.00, 0.97, 0.000, 0.000, 0.000, 0, 0, 0, 0, 0, 0, 0, 0, 0, 0, 1774153948221, 0, 04:32:28.221
119, -0.95, -0.78, 1.12, 0.20, 2.42, 0.45, 0.22, 0.55, 0.000, 0.000, 0.000, 0, 0, 0, 0, 0, 0, 0, 0, 0, 0, 1774153948225, 0, 04:32:28.225
120, -0.67, -1.50, 0.51, 0.89, 1.49, 1.27, 0.07, 0.32, 0.000, 0.000, 0.000, 0, 0, 0, 0, 0, 0, 0, 0, 0, 0, 1774153948229, 0, 04:32:28.229
121, -0.35, -1.83, -0.40, 1.52, 0.59, 1.91, -0.19, -0.12, 0.000, 0.000, 0.000, 0, 0, 0, 0, 0, 0, 0, 0, 0, 0, 1774153948233, 0, 04:32:28.233
122, -0.22, -1.83, -1.26, 1.93, -0.49, 2.16, -0.79, -0.32, 0.000, 0.000, 0.000, 0, 0, 0, 0, 0, 0, 0, 0, 0, 0, 1774153948237, 0, 04:32:28.237
123, -0.30, -1.58, -1.97, 2.06, -1.46, 2.03, -1.47, -0.11, 0.000, 0.000, 0.000, 0, 0, 0, 0, 0, 0, 0, 0, 0, 0, 1774153948241, 0, 04:32:28.241
124, -0.57, -1.00, -2.42, 1.89, -1.89, 1.71, -2.10, 0.23, 0.000, 0.000, 0.000, 0, 0, 0, 0, 0, 0, 0, 0, 0, 0, 1774153948245, 0, 04:32:28.245
125, -1.11, -0.54, -2.25, 1.31, -2.09, 1.18, -2.41, 0.72, 0.000, 0.000, 0.000, 0, 0, 0, 0, 0, 0, 0, 0, 0, 0, 1774153948249, 0, 04:32:28.249
126, -1.65, -0.10, -1.93, 0.45, -1.90, 0.68, -2.68, 1.20, 0.000, 0.000, 0.000, 0, 0, 0, 0, 0, 0, 0, 0, 0, 0, 1774153948253, 0, 04:32:28.253
127, -2.09, 0.07, -1.21, -0.52, -1.44, 0.35, -2.35, 1.42, 0.000, 0.000, 0.000, 0, 0, 0, 0, 0, 0, 0, 0, 0, 0, 1774153948257, 0, 04:32:28.257
128, -2.25, 0.11, -0.31, -1.43, -0.83, 0.26, -1.66, 1.47, 0.000, 0.000, 0.000, 0, 0, 0, 0, 0, 0, 0, 0, 0, 0, 1774153948261, 0, 04:32:28.261
129, -1.97, -0.15, 0.64, -1.98, -0.31, 0.40, -0.80, 1.21, 0.000, 0.000, 0.000, 0, 0, 0, 0, 0, 0, 0, 0, 0, 0, 1774153948265, 0, 04:32:28.265
130, -1.35, -0.51, 1.46, -2.24, -0.00, 0.65, 0.22, 0.66, 0.000, 0.000, 0.000, 0, 0, 0, 0, 0, 0, 0, 0, 0, 0, 1774153948269, 0, 04:32:28.269
131, -0.38, -0.82, 1.92, -2.11, 0.26, 1.09, 1.25, -0.30, 0.000, 0.000, 0.000, 0, 0, 0, 0, 0, 0, 0, 0, 0, 0, 1774153948273, 0, 04:32:28.273
132, 0.59, -0.78, 1.84, -1.63, 0.06, 1.31, 2.04, -1.06, 0.000, 0.000, 0.000, 0, 0, 0, 0, 0, 0, 0, 0, 0, 0, 1774153948277, 0, 04:32:28.277
133, 1.65, -0.77, 1.70, -0.85, -0.27, 1.32, 2.37, -1.76, 0.000, 0.000, 0.000, 0, 0, 0, 0, 0, 0, 0, 0, 0, 0, 1774153948281, 0, 04:32:28.281
134, 2.38, -0.37, 1.26, -0.20, -0.65, 1.09, 2.35, -2.23, 0.000, 0.000, 0.000, 0, 0, 0, 0, 0, 0, 0, 0, 0, 0, 1774153948285, 0, 04:32:28.285
135, 2.81, 0.40, 0.90, 0.54, -0.83, 0.54, 2.04, -2.31, 0.000, 0.000, 0.000, 0, 0, 0, 0, 0, 0, 0, 0, 0, 0, 1774153948289, 0, 04:32:28.289
136, 2.87, 1.30, 0.50, 0.87, -0.98, -0.19, 1.36, -1.95, 0.000, 0.000, 0.000, 0, 0, 0, 0, 0, 0, 0, 0, 0, 0, 1774153948293, 0, 04:32:28.293
137, 2.53, 2.19, 0.28, 1.10, -0.68, -1.11, 0.74, -1.45, 0.000, 0.000, 0.000, 0, 0, 0, 0, 0, 0, 0, 0, 0, 0, 1774153948297, 0, 04:32:28.297
138, 2.03, 2.84, 0.38, 0.99, -0.20, -1.72, 0.12, -0.36, 0.000, 0.000, 0.000, 0, 0, 0, 0, 0, 0, 0, 0, 0, 0, 1774153948301, 0, 04:32:28.301
139, 1.11, 3.16, 0.63, 0.62, 0.49, -2.23, -0.13, 0.50, 0.000, 0.000, 0.000, 0, 0, 0, 0, 0, 0, 0, 0, 0, 0, 1774153948305, 0, 04:32:28.305
140, 0.46, 2.99, 1.11, 0.39, 1.20, -2.34, -0.21, 1.32, 0.000, 0.000, 0.000, 0, 0, 0, 0, 0, 0, 0, 0, 0, 0, 1774153948309, 0, 04:32:28.309
141, -0.18, 2.52, 1.40, 0.12, 1.83, -2.01, -0.01, 1.70, 0.000, 0.000, 0.000, 0, 0, 0, 0, 0, 0, 0, 0, 0, 0, 1774153948313, 0, 04:32:28.313
142, -0.38, 1.63, 1.56, 0.05, 2.19, -1.36, 0.22, 1.83, 0.000, 0.000, 0.000, 0, 0, 0, 0, 0, 0, 0, 0, 0, 0, 1774153948317, 0, 04:32:28.317
143, -0.41, 0.65, 1.27, 0.33, 2.16, -0.51, 0.60, 1.85, 0.000, 0.000, 0.000, 0, 0, 0, 0, 0, 0, 0, 0, 0, 0, 1774153948321, 0, 04:32:28.321
144, -0.22, -0.34, 0.92, 0.88, 1.68, 0.53, 0.76, 1.34, 0.000, 0.000, 0.000, 0, 0, 0, 0, 0, 0, 0, 0, 0, 0, 1774153948325, 0, 04:32:28.325
145, 0.10, -1.13, 0.25, 1.46, 0.96, 1.38, 0.79, 0.90, 0.000, 0.000, 0.000, 0, 0, 0, 0, 0, 0, 0, 0, 0, 0, 1774153948329, 0, 04:32:28.329
146, 0.33, -1.49, -0.73, 1.93, 0.08, 1.71, 0.57, 0.54, 0.000, 0.000, 0.000, 0, 0, 0, 0, 0, 0, 0, 0, 0, 0, 1774153948333, 0, 04:32:28.333
147, 0.47, -1.64, -1.84, 2.35, -0.97, 1.88, -0.06, 0.33, 0.000, 0.000, 0.000, 0, 0, 0, 0, 0, 0, 0, 0, 0, 0, 1774153948337, 0, 04:32:28.337
148, 0.26, -1.45, -2.55, 2.42, -1.65, 1.74, -0.78, 0.36, 0.000, 0.000, 0.000, 0, 0, 0, 0, 0, 0, 0, 0, 0, 0, 1774153948341, 0, 04:32:28.341
149, -0.19, -1.12, -3.06, 2.05, -2.13, 1.22, -1.40, 0.56, 0.000, 0.000, 0.000, 0, 0, 0, 0, 0, 0, 0, 0, 0, 0, 1774153948345, 0, 04:32:28.345
150, -0.78, -0.67, -2.97, 1.49, -2.18, 0.65, -1.92, 0.87, 0.000, 0.000, 0.000, 0, 0, 0, 0, 0, 0, 0, 0, 0, 0, 1774153948349, 0, 04:32:28.349
151, -1.34, -0.47, -2.67, 0.42, -1.81, 0.03, -2.06, 1.31, 0.000, 0.000, 0.000, 0, 0, 0, 0, 0, 0, 0, 0, 0, 0, 1774153948353, 0, 04:32:28.353
152, -1.78, -0.23, -2.01, -0.67, -1.27, -0.39, -1.75, 1.51, 0.000, 0.000, 0.000, 0, 0, 0, 0, 0, 0, 0, 0, 0, 0, 1774153948357, 0, 04:32:28.357
153, -2.10, -0.39, -1.07, -1.59, -0.61, -0.53, -1.27, 1.31, 0.000, 0.000, 0.000, 0, 0, 0, 0, 0, 0, 0, 0, 0, 0, 1774153948361, 0, 04:32:28.361
154, -2.00, -0.69, -0.28, -2.40, 0.16, -0.53, -0.34, 1.06, 0.000, 0.000, 0.000, 0, 0, 0, 0, 0, 0, 0, 0, 0, 0, 1774153948365, 0, 04:32:28.365
155, -1.51, -1.12, 0.55, -2.69, 0.60, -0.18, 0.60, 0.16, 0.000, 0.000, 0.000, 0, 0, 0, 0, 0, 0, 0, 0, 0, 0, 1774153948369, 0, 04:32:28.369
156, -0.68, -1.55, 1.09, -2.77, 0.67, 0.27, 1.44, -0.59, 0.000, 0.000, 0.000, 0, 0, 0, 0, 0, 0, 0, 0, 0, 0, 1774153948373, 0, 04:32:28.373
157, 0.20, -1.75, 1.28, -2.31, 0.63, 0.56, 2.10, -1.63, 0.000, 0.000, 0.000, 0, 0, 0, 0, 0, 0, 0, 0, 0, 0, 1774153948377, 0, 04:32:28.377
158, 1.09, -1.59, 1.02, -1.60, 0.47, 0.63, 2.30, -2.40, 0.000, 0.000, 0.000, 0, 0, 0, 0, 0, 0, 0, 0, 0, 0, 1774153948381, 0, 04:32:28.381
159, 1.88, -1.08, 0.78, -0.87, 0.11, 0.37, 2.24, -2.94, 0.000, 0.000, 0.000, 0, 0, 0, 0, 0, 0, 0, 0, 0, 0, 1774153948385, 0, 04:32:28.385
160, 2.23, -0.35, 0.48, -0.36, -0.05, -0.24, 1.69, -3.09, 0.000, 0.000, 0.000, 0, 0, 0, 0, 0, 0, 0, 0, 0, 0, 1774153948389, 0, 04:32:28.389
161, 2.26, 0.45, 0.10, 0.05, -0.14, -0.85, 1.01, -2.77, 0.000, 0.000, 0.000, 0, 0, 0, 0, 0, 0, 0, 0, 0, 0, 1774153948393, 0, 04:32:28.393
162, 1.80, 1.36, 0.12, 0.26, 0.06, -1.49, 0.24, -2.14, 0.000, 0.000, 0.000, 0, 0, 0, 0, 0, 0, 0, 0, 0, 0, 1774153948397, 0, 04:32:28.397
163, 1.07, 2.08, 0.30, 0.10, 0.47, -2.09, -0.35, -1.22, 0.000, 0.000, 0.000, 0, 0, 0, 0, 0, 0, 0, 0, 0, 0, 1774153948401, 0, 04:32:28.401
164, 0.28, 2.48, 0.77, -0.13, 1.18, -2.45, -0.77, -0.22, 0.000, 0.000, 0.000, 0, 0, 0, 0, 0, 0, 0, 0, 0, 0, 1774153948405, 0, 04:32:28.405
165, -0.31, 2.41, 1.17, -0.35, 1.77, -2.49, -1.06, 0.42, 0.000, 0.000, 0.000, 0, 0, 0, 0, 0, 0, 0, 0, 0, 0, 1774153948409, 0, 04:32:28.409
166, -0.84, 1.98, 1.62, -0.57, 2.42, -2.10, -0.80, 0.88, 0.000, 0.000, 0.000, 0, 0, 0, 0, 0, 0, 0, 0, 0, 0, 1774153948413, 0, 04:32:28.413
167, -1.18, 1.28, 1.93, -0.56, 2.62, -1.25, -0.61, 1.23, 0.000, 0.000, 0.000, 0, 0, 0, 0, 0, 0, 0, 0, 0, 0, 1774153948417, 0, 04:32:28.417
168, -1.13, 0.44, 1.79, -0.18, 2.42, -0.24, -0.22, 1.15, 0.000, 0.000, 0.000, 0, 0, 0, 0, 0, 0, 0, 0, 0, 0, 1774153948421, 0, 04:32:28.421
169, -0.76, -0.47, 1.45, 0.47, 1.96, 0.87, 0.00, 0.86, 0.000, 0.000, 0.000, 0, 0, 0, 0, 0, 0, 0, 0, 0, 0, 1774153948425, 0, 04:32:28.425
170, -0.49, -1.09, 0.75, 1.08, 1.16, 1.69, -0.01, 0.47, 0.000, 0.000, 0.000, 0, 0, 0, 0, 0, 0, 0, 0, 0, 0, 1774153948429, 0, 04:32:28.429
171, -0.13, -1.39, -0.13, 1.84, -0.00, 2.27, -0.24, 0.27, 0.000, 0.000, 0.000, 0, 0, 0, 0, 0, 0, 0, 0, 0, 0, 1774153948433, 0, 04:32:28.433
172, 0.14, -1.51, -1.00, 2.28, -1.01, 2.49, -0.71, 0.05, 0.000, 0.000, 0.000, 0, 0, 0, 0, 0, 0, 0, 0, 0, 0, 1774153948437, 0, 04:32:28.437
173, 0.04, -1.18, -1.77, 2.59, -1.93, 2.36, -1.39, 0.28, 0.000, 0.000, 0.000, 0, 0, 0, 0, 0, 0, 0, 0, 0, 0, 1774153948441, 0, 04:32:28.441
174, -0.24, -0.65, -2.29, 2.39, -2.45, 1.94, -1.97, 0.64, 0.000, 0.000, 0.000, 0, 0, 0, 0, 0, 0, 0, 0, 0, 0, 1774153948445, 0, 04:32:28.445
175, -0.72, -0.21, -2.31, 1.65, -2.68, 1.30, -2.31, 1.11, 0.000, 0.000, 0.000, 0, 0, 0, 0, 0, 0, 0, 0, 0, 0, 1774153948449, 0, 04:32:28.449
176, -1.21, 0.18, -1.91, 0.84, -2.39, 0.73, -2.43, 1.58, 0.000, 0.000, 0.000, 0, 0, 0, 0, 0, 0, 0, 0, 0, 0, 1774153948453, 0, 04:32:28.453
177, -1.56, 0.44, -1.36, -0.20, -1.89, 0.44, -2.05, 1.91, 0.000, 0.000, 0.000, 0, 0, 0, 0, 0, 0, 0, 0, 0, 0, 1774153948457, 0, 04:32:28.457
178, -1.76, 0.29, -0.47, -1.08, -1.18, 0.13, -1.27, 1.89, 0.000, 0.000, 0.000, 0, 0, 0, 0, 0, 0, 0, 0, 0, 0, 1774153948461, 0, 04:32:28.461
179, -1.53, 0.06, 0.35, -1.64, -0.75, 0.35, -0.44, 1.54, 0.000, 0.000, 0.000, 0, 0, 0, 0, 0, 0, 0, 0, 0, 0, 1774153948465, 0, 04:32:28.465
180, -1.09, -0.37, 1.03, -2.06, -0.25, 0.42, 0.69, 0.94, 0.000, 0.000, 0.000, 0, 0, 0, 0, 0, 0, 0, 0, 0, 0, 1774153948469, 0, 04:32:28.469
181, -0.15, -0.78, 1.33, -1.98, 0.01, 0.77, 1.66, 0.08, 0.000, 0.000, 0.000, 0, 0, 0, 0, 0, 0, 0, 0, 0, 0, 1774153948473, 0, 04:32:28.473
182, 0.81, -0.94, 1.53, -1.59, -0.13, 1.04, 2.51, -0.84, 0.000, 0.000, 0.000, 0, 0, 0, 0, 0, 0, 0, 0, 0, 0, 1774153948477, 0, 04:32:28.477
183, 1.75, -0.87, 1.18, -0.86, -0.36, 0.97, 2.74, -1.77, 0.000, 0.000, 0.000, 0, 0, 0, 0, 0, 0, 0, 0, 0, 0, 1774153948481, 0, 04:32:28.481
184, 2.51, -0.45, 0.83, -0.38, -0.68, 0.59, 2.70, -2.22, 0.000, 0.000, 0.000, 0, 0, 0, 0, 0, 0, 0, 0, 0, 0, 1774153948485, 0, 04:32:28.485
185, 2.93, 0.14, 0.28, 0.33, -0.88, 0.07, 2.27, -2.41, 0.000, 0.000, 0.000, 0, 0, 0, 0, 0, 0, 0, 0, 0, 0, 1774153948489, 0, 04:32:28.489
186, 2.97, 0.98, -0.10, 0.71, -0.90, -0.74, 1.68, -2.06, 0.000, 0.000, 0.000, 0, 0, 0, 0, 0, 0, 0, 0, 0, 0, 1774153948493, 0, 04:32:28.493
187, 2.44, 1.77, -0.18, 0.75, -0.55, -1.61, 0.98, -1.45, 0.000, 0.000, 0.000, 0, 0, 0, 0, 0, 0, 0, 0, 0, 0, 1774153948497, 0, 04:32:28.497
188, 1.79, 2.41, -0.11, 0.64, -0.00, -2.36, 0.31, -0.68, 0.000, 0.000, 0.000, 0, 0, 0, 0, 0, 0, 0, 0, 0, 0, 1774153948501, 0, 04:32:28.501
189, 0.93, 2.60, 0.15, 0.31, 0.80, -2.79, -0.01, 0.16, 0.000, 0.000, 0.000, 0, 0, 0, 0, 0, 0, 0, 0, 0, 0, 1774153948505, 0, 04:32:28.505
190, 0.13, 2.55, 0.58, -0.19, 1.53, -2.89, -0.18, 0.93, 0.000, 0.000, 0.000, 0, 0, 0, 0, 0, 0, 0, 0, 0, 0, 1774153948509, 0, 04:32:28.509
191, -0.43, 1.99, 0.92, -0.29, 2.19, -2.40, -0.05, 1.34, 0.000, 0.000, 0.000, 0, 0, 0, 0, 0, 0, 0, 0, 0, 0, 1774153948513, 0, 04:32:28.513
192, -0.79, 1.06, 1.14, -0.49, 2.55, -1.83, 0.15, 1.53, 0.000, 0.000, 0.000, 0, 0, 0, 0, 0, 0, 0, 0, 0, 0, 1774153948517, 0, 04:32:28.517
193, -0.81, 0.18, 1.03, -0.13, 2.55, -0.91, 0.44, 1.35, 0.000, 0.000, 0.000, 0, 0, 0, 0, 0, 0, 0, 0, 0, 0, 1774153948521, 0, 04:32:28.521
194, -0.70, -0.73, 0.70, 0.28, 2.10, 0.05, 0.56, 0.91, 0.000, 0.000, 0.000, 0, 0, 0, 0, 0, 0, 0, 0, 0, 0, 1774153948525, 0, 04:32:28.525
195, -0.45, -1.55, -0.08, 0.84, 1.32, 1.00, 0.55, 0.39, 0.000, 0.000, 0.000, 0, 0, 0, 0, 0, 0, 0, 0, 0, 0, 1774153948529, 0, 04:32:28.529
196, -0.19, -1.97, -0.85, 1.42, 0.43, 1.40, 0.13, 0.06, 0.000, 0.000, 0.000, 0, 0, 0, 0, 0, 0, 0, 0, 0, 0, 1774153948533, 0, 04:32:28.533
197, -0.10, -2.13, -1.82, 1.83, -0.48, 1.70, -0.47, -0.23, 0.000, 0.000, 0.000, 0, 0, 0, 0, 0, 0, 0, 0, 0, 0, 1774153948537, 0, 04:32:28.537
198, -0.27, -1.98, -2.52, 1.92, -1.31, 1.53, -1.21, -0.23, 0.000, 0.000, 0.000, 0, 0, 0, 0, 0, 0, 0, 0, 0, 0, 1774153948541, 0, 04:32:28.541
199, -0.73, -1.56, -2.88, 1.57, -1.83, 1.06, -1.90, 0.02, 0.000, 0.000, 0.000, 0, 0, 0, 0, 0, 0, 0, 0, 0, 0, 1774153948545, 0, 04:32:28.545
200, -1.24, -0.99, -2.89, 0.95, -1.91, 0.55, -2.36, 0.42, 0.000, 0.000, 0.000, 0, 0, 0, 0, 0, 0, 0, 0, 0, 0, 1774153948549, 0, 04:32:28.549
201, -1.83, -0.64, -2.48, 0.02, -1.75, 0.10, -2.50, 0.86, 0.000, 0.000, 0.000, 0, 0, 0, 0, 0, 0, 0, 0, 0, 0, 1774153948553, 0, 04:32:28.553
202, -2.19, -0.47, -1.70, -1.01, -1.15, -0.29, -2.36, 1.14, 0.000, 0.000, 0.000, 0, 0, 0, 0, 0, 0, 0, 0, 0, 0, 1774153948557, 0, 04:32:28.557
203, -2.42, -0.48, -0.71, -1.91, -0.53, -0.32, -1.73, 1.03, 0.000, 0.000, 0.000, 0, 0, 0, 0, 0, 0, 0, 0, 0, 0, 1774153948561, 0, 04:32:28.561
204, -2.38, -0.70, 0.17, -2.59, 0.02, -0.09, -0.86, 0.74, 0.000, 0.000, 0.000, 0, 0, 0, 0, 0, 0, 0, 0, 0, 0, 1774153948565, 0, 04:32:28.565
205, -1.82, -1.14, 0.98, -2.84, 0.42, 0.18, 0.13, 0.13, 0.000, 0.000, 0.000, 0, 0, 0, 0, 0, 0, 0, 0, 0, 0, 1774153948569, 0, 04:32:28.569
206, -1.03, -1.39, 1.49, -2.68, 0.56, 0.50, 0.94, -0.70, 0.000, 0.000, 0.000, 0, 0, 0, 0, 0, 0, 0, 0, 0, 0, 1774153948573, 0, 04:32:28.573
207, 0.02, -1.41, 1.69, -2.22, 0.50, 0.84, 1.65, -1.62, 0.000, 0.000, 0.000, 0, 0, 0, 0, 0, 0, 0, 0, 0, 0, 1774153948577, 0, 04:32:28.577
208, 1.05, -1.36, 1.51, -1.42, 0.18, 0.96, 1.94, -2.36, 0.000, 0.000, 0.000, 0, 0, 0, 0, 0, 0, 0, 0, 0, 0, 1774153948581, 0, 04:32:28.581
209, 1.88, -0.77, 1.27, -0.85, -0.30, 0.76, 1.93, -2.89, 0.000, 0.000, 0.000, 0, 0, 0, 0, 0, 0, 0, 0, 0, 0, 1774153948585, 0, 04:32:28.585
210, 2.24, -0.06, 0.79, -0.04, -0.57, 0.30, 1.47, -2.94, 0.000, 0.000, 0.000, 0, 0, 0, 0, 0, 0, 0, 0, 0, 0, 1774153948589, 0, 04:32:28.589
211, 2.30, 0.92, 0.49, 0.40, -0.66, -0.39, 0.86, -2.54, 0.000, 0.000, 0.000, 0, 0, 0, 0, 0, 0, 0, 0, 0, 0, 1774153948593, 0, 04:32:28.593
212, 1.89, 1.86, 0.39, 0.62, -0.42, -1.07, 0.15, -1.80, 0.000, 0.000, 0.000, 0, 0, 0, 0, 0, 0, 0, 0, 0, 0, 1774153948597, 0, 04:32:28.597
213, 1.38, 2.56, 0.47, 0.55, 0.00, -1.80, -0.39, -0.88, 0.000, 0.000, 0.000, 0, 0, 0, 0, 0, 0, 0, 0, 0, 0, 1774153948601, 0, 04:32:28.601
214, 0.60, 2.95, 0.82, 0.28, 0.63, -2.24, -0.77, 0.03, 0.000, 0.000, 0.000, 0, 0, 0, 0, 0, 0, 0, 0, 0, 0, 1774153948605, 0, 04:32:28.605
215, -0.07, 2.82, 1.27, 0.03, 1.32, -2.14, -0.75, 0.89, 0.000, 0.000, 0.000, 0, 0, 0, 0, 0, 0, 0, 0, 0, 0, 1774153948609, 0, 04:32:28.609
216, -0.59, 2.48, 1.73, -0.16, 1.80, -1.74, -0.57, 1.54, 0.000, 0.000, 0.000, 0, 0, 0, 0, 0, 0, 0, 0, 0, 0, 1774153948613, 0, 04:32:28.613
217, -0.77, 1.63, 1.87, -0.03, 2.15, -1.06, -0.24, 1.72, 0.000, 0.000, 0.000, 0, 0, 0, 0, 0, 0, 0, 0, 0, 0, 1774153948617, 0, 04:32:28.617
218, -0.79, 0.76, 1.73, 0.18, 1.98, -0.15, 0.11, 1.60, 0.000, 0.000, 0.000, 0, 0, 0, 0, 0, 0, 0, 0, 0, 0, 1774153948621, 0, 04:32:28.621
219, -0.49, -0.15, 1.36, 0.86, 1.44, 0.86, 0.28, 1.26, 0.000, 0.000, 0.000, 0, 0, 0, 0, 0, 0, 0, 0, 0, 0, 1774153948625, 0, 04:32:28.625
220, 0.06, -0.86, 0.61, 1.49, 0.65, 1.64, 0.39, 0.88, 0.000, 0.000, 0.000, 0, 0, 0, 0, 0, 0, 0, 0, 0, 0, 1774153948629, 0, 04:32:28.629
221, 0.23, -1.28, -0.36, 2.10, -0.28, 2.07, 0.13, 0.58, 0.000, 0.000, 0.000, 0, 0, 0, 0, 0, 0, 0, 0, 0, 0, 1774153948633, 0, 04:32:28.633
222, 0.40, -1.42, -1.44, 2.54, -1.34, 2.35, -0.30, 0.45, 0.000, 0.000, 0.000, 0, 0, 0, 0, 0, 0, 0, 0, 0, 0, 1774153948637, 0, 04:32:28.637
223, 0.44, -1.23, -2.24, 2.65, -2.08, 2.14, -0.88, 0.54, 0.000, 0.000, 0.000, 0, 0, 0, 0, 0, 0, 0, 0, 0, 0, 1774153948641, 0, 04:32:28.641
224, 0.14, -0.73, -2.63, 2.44, -2.62, 1.68, -1.48, 0.83, 0.000, 0.000, 0.000, 0, 0, 0, 0, 0, 0, 0, 0, 0, 0, 1774153948645, 0, 04:32:28.645
225, -0.58, -0.32, -2.80, 1.86, -2.71, 0.94, -1.83, 1.21, 0.000, 0.000, 0.000, 0, 0, 0, 0, 0, 0, 0, 0, 0, 0, 1774153948649, 0, 04:32:28.649
226, -1.11, 0.05, -2.51, 0.83, -2.35, 0.38, -2.01, 1.60, 0.000, 0.000, 0.000, 0, 0, 0, 0, 0, 0, 0, 0, 0, 0, 1774153948653, 0, 04:32:28.653
227, -1.55, 0.10, -1.82, -0.31, -1.86, -0.07, -1.72, 1.96, 0.000, 0.000, 0.000, 0, 0, 0, 0, 0, 0, 0, 0, 0, 0, 1774153948657, 0, 04:32:28.657
228, -1.69, -0.10, -0.97, -1.23, -1.08, -0.28, -0.99, 1.78, 0.000, 0.000, 0.000, 0, 0, 0, 0, 0, 0, 0, 0, 0, 0, 1774153948661, 0, 04:32:28.661
229, -1.69, -0.34, -0.20, -1.96, -0.44, -0.23, -0.12, 1.35, 0.000, 0.000, 0.000, 0, 0, 0, 0, 0, 0, 0, 0, 0, 0, 1774153948665, 0, 04:32:28.665
230, -1.16, -0.85, 0.52, -2.41, -0.01, -0.01, 0.87, 0.63, 0.000, 0.000, 0.000, 0, 0, 0, 0, 0, 0, 0, 0, 0, 0, 1774153948669, 0, 04:32:28.669
231, -0.33, -1.23, 0.97, -2.41, 0.26, 0.29, 1.88, -0.24, 0.000, 0.000, 0.000, 0, 0, 0, 0, 0, 0, 0, 0, 0, 0, 1774153948673, 0, 04:32:28.673
232, 0.58, -1.51, 0.96, -1.98, 0.22, 0.52, 2.48, -1.17, 0.000, 0.000, 0.000, 0, 0, 0, 0, 0, 0, 0, 0, 0, 0, 1774153948677, 0, 04:32:28.677
233, 1.44, -1.34, 0.81, -1.35, 0.06, 0.53, 2.73, -2.10, 0.000, 0.000, 0.000, 0, 0, 0, 0, 0, 0, 0, 0, 0, 0, 1774153948681, 0, 04:32:28.681
234, 2.15, -1.08, 0.38, -0.80, -0.13, 0.16, 2.59, -2.57, 0.000, 0.000, 0.000, 0, 0, 0, 0, 0, 0, 0, 0, 0, 0, 1774153948685, 0, 04:32:28.685
235, 2.43, -0.39, -0.03, -0.20, -0.42, -0.37, 2.21, -2.81, 0.000, 0.000, 0.000, 0, 0, 0, 0, 0, 0, 0, 0, 0, 0, 1774153948689, 0, 04:32:28.689
236, 2.42, 0.46, -0.32, 0.21, -0.35, -1.13, 1.45, -2.52, 0.000, 0.000, 0.000, 0, 0, 0, 0, 0, 0, 0, 0, 0, 0, 1774153948693, 0, 04:32:28.693
237, 1.97, 1.22, -0.37, 0.26, -0.08, -1.93, 0.68, -2.01, 0.000, 0.000, 0.000, 0, 0, 0, 0, 0, 0, 0, 0, 0, 0, 1774153948697, 0, 04:32:28.697
238, 1.27, 1.92, -0.26, 0.15, 0.46, -2.65, 0.03, -1.19, 0.000, 0.000, 0.000, 0, 0, 0, 0, 0, 0, 0, 0, 0, 0, 1774153948701, 0, 04:32:28.701
239, 0.38, 2.30, 0.10, -0.31, 1.17, -2.97, -0.41, -0.29, 0.000, 0.000, 0.000, 0, 0, 0, 0, 0, 0, 0, 0, 0, 0, 1774153948705, 0, 04:32:28.705
240, -0.37, 2.11, 0.62, -0.47, 1.88, -2.95, -0.61, 0.46, 0.000, 0.000, 0.000, 0, 0, 0, 0, 0, 0, 0, 0, 0, 0, 1774153948709, 0, 04:32:28.709
241, -0.95, 1.67, 1.01, -0.87, 2.53, -2.56, -0.52, 0.90, 0.000, 0.000, 0.000, 0, 0, 0, 0, 0, 0, 0, 0, 0, 0, 1774153948713, 0, 04:32:28.713
242, -1.31, 0.74, 1.36, -0.88, 2.81, -1.78, -0.31, 1.08, 0.000, 0.000, 0.000, 0, 0, 0, 0, 0, 0, 0, 0, 0, 0, 1774153948717, 0, 04:32:28.717
243, -1.32, -0.06, 1.38, -0.50, 2.70, -0.76, -0.04, 0.95, 0.000, 0.000, 0.000, 0, 0, 0, 0, 0, 0, 0, 0, 0, 0, 1774153948721, 0, 04:32:28.721
244, -1.11, -0.96, 0.96, -0.02, 2.30, 0.33, 0.04, 0.50, 0.000, 0.000, 0.000, 0, 0, 0, 0, 0, 0, 0, 0, 0, 0, 1774153948725, 0, 04:32:28.725
245, -0.79, -1.67, 0.31, 0.70, 1.43, 1.14, 0.08, 0.13, 0.000, 0.000, 0.000, 0, 0, 0, 0, 0, 0, 0, 0, 0, 0, 1774153948729, 0, 04:32:28.729
246, -0.52, -1.95, -0.50, 1.34, 0.39, 1.73, -0.39, -0.21, 0.000, 0.000, 0.000, 0, 0, 0, 0, 0, 0, 0, 0, 0, 0, 1774153948733, 0, 04:32:28.733
247, -0.33, -2.03, -1.48, 1.80, -0.56, 2.03, -0.88, -0.35, 0.000, 0.000, 0.000, 0, 0, 0, 0, 0, 0, 0, 0, 0, 0, 1774153948737, 0, 04:32:28.737
248, -0.45, -1.73, -2.05, 1.93, -1.57, 2.02, -1.63, -0.20, 0.000, 0.000, 0.000, 0, 0, 0, 0, 0, 0, 0, 0, 0, 0, 1774153948741, 0, 04:32:28.741
249, -0.68, -1.25, -2.32, 1.76, -1.97, 1.50, -2.21, 0.09, 0.000, 0.000, 0.000, 0, 0, 0, 0, 0, 0, 0, 0, 0, 0, 1774153948745, 0, 04:32:28.745
250, -1.19, -0.79, -2.46, 1.14, -2.24, 1.08, -2.67, 0.49, 0.000, 0.000, 0.000, 0, 0, 0, 0, 0, 0, 0, 0, 0, 0, 1774153948749, 0, 04:32:28.749
251, -1.77, -0.32, -2.05, 0.36, -1.99, 0.61, -2.74, 1.05, 0.000, 0.000, 0.000, 0, 0, 0, 0, 0, 0, 0, 0, 0, 0, 1774153948753, 0, 04:32:28.753
252, -2.23, 0.00, -1.27, -0.65, -1.56, 0.11, -2.44, 1.33, 0.000, 0.000, 0.000, 0, 0, 0, 0, 0, 0, 0, 0, 0, 0, 1774153948757, 0, 04:32:28.757
253, -2.37, -0.16, -0.32, -1.56, -0.99, 0.14, -1.84, 1.45, 0.000, 0.000, 0.000, 0, 0, 0, 0, 0, 0, 0, 0, 0, 0, 1774153948761, 0, 04:32:28.761
254, -2.04, -0.33, 0.55, -2.21, -0.34, 0.29, -0.86, 1.17, 0.000, 0.000, 0.000, 0, 0, 0, 0, 0, 0, 0, 0, 0, 0, 1774153948765, 0, 04:32:28.765
255, -1.49, -0.65, 1.14, -2.40, 0.05, 0.56, 0.27, 0.43, 0.000, 0.000, 0.000, 0, 0, 0, 0, 0, 0, 0, 0, 0, 0, 1774153948769, 0, 04:32:28.769
0, -0.59, -0.85, 1.71, -2.31, 0.07, 0.90, 1.12, -0.31, 0.000, 0.000, 0.000, 0, 0, 0, 0, 0, 0, 0, 0, 0, 0, 1774153948773, 0, 04:32:28.773
1, 0.35, -1.02, 1.90, -1.83, -0.03, 1.17, 1.88, -1.13, 0.000, 0.000, 0.000, 0, 0, 0, 0, 0, 0, 0, 0, 0, 0, 1774153948777, 0, 04:32:28.777
2, 1.49, -0.93, 1.61, -1.04, -0.35, 1.22, 2.33, -1.95, 0.000, 0.000, 0.000, 0, 0, 0, 0, 0, 0, 0, 0, 0, 0, 1774153948781, 0, 04:32:28.781
3, 2.28, -0.38, 1.12, -0.38, -0.63, 0.96, 2.28, -2.30, 0.000, 0.000, 0.000, 0, 0, 0, 0, 0, 0, 0, 0, 0, 0, 1774153948785, 0, 04:32:28.785
4, 2.67, 0.26, 0.73, 0.43, -1.08, 0.40, 1.92, -2.36, 0.000, 0.000, 0.000, 0, 0, 0, 0, 0, 0, 0, 0, 0, 0, 1774153948789, 0, 04:32:28.789
5, 2.74, 1.22, 0.29, 0.79, -1.01, -0.35, 1.37, -2.08, 0.000, 0.000, 0.000, 0, 0, 0, 0, 0, 0, 0, 0, 0, 0, 1774153948793, 0, 04:32:28.793
6, 2.43, 1.96, 0.24, 0.93, -0.82, -1.10, 0.63, -1.42, 0.000, 0.000, 0.000, 0, 0, 0, 0, 0, 0, 0, 0, 0, 0, 1774153948797, 0, 04:32:28.797
7, 1.79, 2.73, 0.21, 0.76, -0.39, -1.93, 0.09, -0.61, 0.000, 0.000, 0.000, 0, 0, 0, 0, 0, 0, 0, 0, 0, 0, 1774153948801, 0, 04:32:28.801
8, 1.00, 2.97, 0.53, 0.56, 0.39, -2.41, -0.26, 0.46, 0.000, 0.000, 0.000, 0, 0, 0, 0, 0, 0, 0, 0, 0, 0, 1774153948805, 0, 04:32:28.805
9, 0.27, 2.84, 0.87, 0.20, 1.23, -2.35, -0.31, 1.30, 0.000, 0.000, 0.000, 0, 0, 0, 0, 0, 0, 0, 0, 0, 0, 1774153948809, 0, 04:32:28.809
10, -0.29, 2.36, 1.22, -0.05, 1.73, -2.08, -0.05, 1.79, 0.000, 0.000, 0.000, 0, 0, 0, 0, 0, 0, 0, 0, 0, 0, 1774153948813, 0, 04:32:28.813
11, -0.55, 1.56, 1.48, -0.01, 2.13, -1.42, 0.13, 1.86, 0.000, 0.000, 0.000, 0, 0, 0, 0, 0, 0, 0, 0, 0, 0, 1774153948817, 0, 04:32:28.817
12, -0.49, 0.53, 1.28, 0.16, 2.11, -0.52, 0.49, 1.66, 0.000, 0.000, 0.000, 0, 0, 0, 0, 0, 0, 0, 0, 0, 0, 1774153948821, 0, 04:32:28.821
13, -0.47, -0.39, 0.78, 0.64, 1.62, 0.43, 0.69, 1.37, 0.000, 0.000, 0.000, 0, 0, 0, 0, 0, 0, 0, 0, 0, 0, 1774153948825, 0, 04:32:28.825
14, -0.05, -1.23, -0.02, 1.26, 0.88, 1.18, 0.80, 0.86, 0.000, 0.000, 0.000, 0, 0, 0, 0, 0, 0, 0, 0, 0, 0, 1774153948829, 0, 04:32:28.829
15, 0.23, -1.64, -0.99, 1.90, -0.13, 1.73, 0.41, 0.49, 0.000, 0.000, 0.000, 0, 0, 0, 0, 0, 0, 0, 0, 0, 0, 1774153948833, 0, 04:32:28.833
16, 0.33, -1.77, -1.92, 2.26, -1.02, 1.80, -0.11, 0.27, 0.000, 0.000, 0.000, 0, 0, 0, 0, 0, 0, 0, 0, 0, 0, 1774153948837, 0, 04:32:28.837
17, 0.13, -1.62, -2.64, 2.36, -1.69, 1.62, -0.85, 0.28, 0.000, 0.000, 0.000, 0, 0, 0, 0, 0, 0, 0, 0, 0, 0, 1774153948841, 0, 04:32:28.841
18, -0.35, -1.26, -3.06, 1.94, -2.16, 1.05, -1.44, 0.57, 0.000, 0.000, 0.000, 0, 0, 0, 0, 0, 0, 0, 0, 0, 0, 1774153948845, 0, 04:32:28.845
19, -0.83, -0.82, -3.18, 1.31, -2.20, 0.61, -1.85, 0.94, 0.000, 0.000, 0.000, 0, 0, 0, 0, 0, 0, 0, 0, 0, 0, 1774153948849, 0, 04:32:28.849
20, -1.39, -0.48, -2.71, 0.31, -1.89, -0.03, -2.04, 1.22, 0.000, 0.000, 0.000, 0, 0, 0, 0, 0, 0, 0, 0, 0, 0, 1774153948853, 0, 04:32:28.853
21, -2.06, -0.29, -2.11, -0.80, -1.22, -0.39, -1.83, 1.40, 0.000, 0.000, 0.000, 0, 0, 0, 0, 0, 0, 0, 0, 0, 0, 1774153948857, 0, 04:32:28.857
22, -2.19, -0.46, -1.18, -1.72, -0.64, -0.55, -1.31, 1.26, 0.000, 0.000, 0.000, 0, 0, 0, 0, 0, 0, 0, 0, 0, 0, 1774153948861, 0, 04:32:28.861
23, -2.14, -0.78, -0.31, -2.47, 0.10, -0.45, -0.40, 0.96, 0.000, 0.000, 0.000, 0, 0, 0, 0, 0, 0, 0, 0, 0, 0, 1774153948865, 0, 04:32:28.865
24, -1.64, -1.10, 0.55, -2.85, 0.50, -0.18, 0.57, 0.21, 0.000, 0.000, 0.000, 0, 0, 0, 0, 0, 0, 0, 0, 0, 0, 1774153948869, 0, 04:32:28.869
25, -0.91, -1.58, 1.09, -2.77, 0.77, 0.20, 1.39, -0.63, 0.000, 0.000, 0.000, 0, 0, 0, 0, 0, 0, 0, 0, 0, 0, 1774153948873, 0, 04:32:28.873
26, 0.06, -1.76, 1.07, -2.37, 0.57, 0.41, 2.09, -1.63, 0.000, 0.000, 0.000, 0, 0, 0, 0, 0, 0, 0, 0, 0, 0, 1774153948877, 0, 04:32:28.877
27, 1.05, -1.63, 1.01, -1.73, 0.39, 0.47, 2.36, -2.45, 0.000, 0.000, 0.000, 0, 0, 0, 0, 0, 0, 0, 0, 0, 0, 1774153948881, 0, 04:32:28.881
28, 1.74, -1.26, 0.77, -1.03, 0.04, 0.31, 2.16, -2.93, 0.000, 0.000, 0.000, 0, 0, 0, 0, 0, 0, 0, 0, 0, 0, 1774153948885, 0, 04:32:28.885
29, 2.18, -0.50, 0.28, -0.45, -0.17, -0.20, 1.74, -3.07, 0.000, 0.000, 0.000, 0, 0, 0, 0, 0, 0, 0, 0, 0, 0, 1774153948889, 0, 04:32:28.889
30, 2.14, 0.40, 0.11, 0.03, -0.17, -0.78, 1.00, -2.80, 0.000, 0.000, 0.000, 0, 0, 0, 0, 0, 0, 0, 0, 0, 0, 1774153948893, 0, 04:32:28.893
31, 1.71, 1.34, 0.09, 0.13, 0.01, -1.57, 0.31, -2.05, 0.000, 0.000, 0.000, 0, 0, 0, 0, 0, 0, 0, 0, 0, 0, 1774153948897, 0, 04:32:28.897
32, 1.10, 2.01, 0.22, 0.02, 0.53, -2.24, -0.30, -1.21, 0.000, 0.000, 0.000, 0, 0, 0, 0, 0, 0, 0, 0, 0, 0, 1774153948901, 0, 04:32:28.901
33, 0.26, 2.41, 0.64, -0.19, 1.09, -2.56, -0.86, -0.33, 0.000, 0.000, 0.000, 0, 0, 0, 0, 0, 0, 0, 0, 0, 0, 1774153948905, 0, 04:32:28.905
34, -0.45, 2.44, 1.19, -0.41, 1.75, -2.50, -0.91, 0.48, 0.000, 0.000, 0.000, 0, 0, 0, 0, 0, 0, 0, 0, 0, 0, 1774153948909, 0, 04:32:28.909
35, -1.04, 2.01, 1.65, -0.59, 2.32, -2.06, -0.76, 1.08, 0.000, 0.000, 0.000, 0, 0, 0, 0, 0, 0, 0, 0, 0, 0, 1774153948913, 0, 04:32:28.913
36, -1.26, 1.23, 1.82, -0.54, 2.57, -1.25, -0.57, 1.28, 0.000, 0.000, 0.000, 0, 0, 0, 0, 0, 0, 0, 0, 0, 0, 1774153948917, 0, 04:32:28.917
37, -1.24, 0.32, 1.76, -0.19, 2.42, -0.26, -0.23, 1.14, 0.000, 0.000, 0.000, 0, 0, 0, 0, 0, 0, 0, 0, 0, 0, 1774153948921, 0, 04:32:28.921
38, -0.88, -0.44, 1.36, 0.45, 1.85, 0.71, -0.02, 0.95, 0.000, 0.000, 0.000, 0, 0, 0, 0, 0, 0, 0, 0, 0, 0, 1774153948925, 0, 04:32:28.925
39, -0.58, -1.12, 0.76, 1.01, 1.09, 1.57, 0.00, 0.60, 0.000, 0.000, 0.000, 0, 0, 0, 0, 0, 0, 0, 0, 0, 0, 1774153948929, 0, 04:32:28.929
40, -0.13, -1.59, -0.24, 1.85, -0.03, 2.25, -0.27, 0.31, 0.000, 0.000, 0.000, 0, 0, 0, 0, 0, 0, 0, 0, 0, 0, 1774153948933, 0, 04:32:28.933
41, 0.01, -1.54, -1.10, 2.21, -0.99, 2.51, -0.75, 0.22, 0.000, 0.000, 0.000, 0, 0, 0, 0, 0, 0, 0, 0, 0, 0, 1774153948937, 0, 04:32:28.937
42, 0.03, -1.23, -1.85, 2.41, -1.92, 2.32, -1.30, 0.38, 0.000, 0.000, 0.000, 0, 0, 0, 0, 0, 0, 0, 0, 0, 0, 1774153948941, 0, 04:32:28.941
43, -0.29, -0.73, -2.33, 2.23, -2.44, 1.97, -2.00, 0.73, 0.000, 0.000, 0.000, 0, 0, 0, 0, 0, 0, 0, 0, 0, 0, 1774153948945, 0, 04:32:28.945
44, -0.71, -0.21, -2.35, 1.77, -2.59, 1.34, -2.33, 1.14, 0.000, 0.000, 0.000, 0, 0, 0, 0, 0, 0, 0, 0, 0, 0, 1774153948949, 0, 04:32:28.949
45, -1.27, 0.16, -1.90, 0.88, -2.44, 0.85, -2.31, 1.59, 0.000, 0.000, 0.000, 0, 0, 0, 0, 0, 0, 0, 0, 0, 0, 1774153948953, 0, 04:32:28.953
46, -1.77, 0.35, -1.37, -0.14, -1.88, 0.44, -1.98, 1.82, 0.000, 0.000, 0.000, 0, 0, 0, 0, 0, 0, 0, 0, 0, 0, 1774153948957, 0, 04:32:28.957
47, -1.84, 0.25, -0.54, -1.07, -1.18, 0.26, -1.35, 1.93, 0.000, 0.000, 0.000, 0, 0, 0, 0, 0, 0, 0, 0, 0, 0, 1774153948961, 0, 04:32:28.961
48, -1.68, -0.07, 0.37, -1.84, -0.66, 0.23, -0.31, 1.63, 0.000, 0.000, 0.000, 0, 0, 0, 0, 0, 0, 0, 0, 0, 0, 1774153948965, 0, 04:32:28.965
49, -1.09, -0.46, 1.01, -2.05, -0.20, 0.53, 0.80, 0.97, 0.000, 0.000, 0.000, 0, 0, 0, 0, 0, 0, 0, 0, 0, 0, 1774153948969, 0, 04:32:28.969
50, -0.14, -0.81, 1.45, -2.01, -0.02, 0.87, 1.72, 0.01, 0.000, 0.000, 0.000, 0, 0, 0, 0, 0, 0, 0, 0, 0, 0, 1774153948973, 0, 04:32:28.973
51, 0.82, -1.01, 1.44, -1.60, -0.10, 1.03, 2.40, -0.84, 0.000, 0.000, 0.000, 0, 0, 0, 0, 0, 0, 0, 0, 0, 0, 1774153948977, 0, 04:32:28.977
52, 1.72, -1.02, 1.18, -0.92, -0.34, 1.02, 2.85, -1.60, 0.000, 0.000, 0.000, 0, 0, 0, 0, 0, 0, 0, 0, 0, 0, 1774153948981, 0, 04:32:28.981
53, 2.45, -0.55, 0.68, -0.26, -0.61, 0.61, 2.85, -2.20, 0.000, 0.000, 0.000, 0, 0, 0, 0, 0, 0, 0, 0, 0, 0, 1774153948985, 0, 04:32:28.985
54, 2.89, 0.13, 0.21, 0.39, -0.79, 0.18, 2.32, -2.29, 0.000, 0.000, 0.000, 0, 0, 0, 0, 0, 0, 0, 0, 0, 0, 1774153948989, 0, 04:32:28.989
55, 2.81, 0.93, -0.18, 0.62, -0.87, -0.75, 1.73, -2.00, 0.000, 0.000, 0.000, 0, 0, 0, 0, 0, 0, 0, 0, 0, 0, 1774153948993, 0, 04:32:28.993
56, 2.42, 1.73, -0.24, 0.79, -0.49, -1.65, 1.08, -1.36, 0.000, 0.000, 0.000, 0, 0, 0, 0, 0, 0, 0, 0, 0, 0, 1774153948997, 0, 04:32:28.997
57, 1.76, 2.37, -0.24, 0.56, 0.06, -2.31, 0.41, -0.51, 0.000, 0.000, 0.000, 0, 0, 0, 0, 0, 0, 0, 0, 0, 0, 1774153949001, 0, 04:32:29.001
58, 0.96, 2.57, 0.19, 0.24, 0.80, -2.86, -0.08, 0.24, 0.000, 0.000, 0.000, 0, 0, 0, 0, 0, 0, 0, 0, 0, 0, 1774153949005, 0, 04:32:29.005
59, 0.13, 2.40, 0.54, -0.10, 1.66, -2.87, -0.11, 0.99, 0.000, 0.000, 0.000, 0, 0, 0, 0, 0, 0, 0, 0, 0, 0, 1774153949009, 0, 04:32:29.009
60, -0.62, 1.93, 0.91, -0.43, 2.21, -2.35, -0.08, 1.44, 0.000, 0.000, 0.000, 0, 0, 0, 0, 0, 0, 0, 0, 0, 0, 1774153949013, 0, 04:32:29.013
61, -0.84, 1.14, 1.10, -0.40, 2.54, -1.79, 0.16, 1.57, 0.000, 0.000, 0.000, 0, 0, 0, 0, 0, 0, 0, 0, 0, 0, 1774153949017, 0, 04:32:29.017
62, -0.90, 0.19, 1.09, -0.19, 2.62, -0.91, 0.41, 1.38, 0.000, 0.000, 0.000, 0, 0, 0, 0, 0, 0, 0, 0, 0, 0, 1774153949021, 0, 04:32:29.021
63, -0.71, -0.82, 0.62, 0.26, 2.10, 0.13, 0.69, 1.01, 0.000, 0.000, 0.000, 0, 0, 0, 0, 0, 0, 0, 0, 0, 0, 1774153949025, 0, 04:32:29.025
64, -0.37, -1.68, -0.09, 0.87, 1.32, 0.93, 0.51, 0.35, 0.000, 0.000, 0.000, 0, 0, 0, 0, 0, 0, 0, 0, 0, 0, 1774153949029, 0, 04:32:29.029
65, -0.31, -2.06, -0.85, 1.46, 0.51, 1.58, 0.21, 0.08, 0.000, 0.000, 0.000, 0, 0, 0, 0, 0, 0, 0, 0, 0, 0, 1774153949033, 0, 04:32:29.033
66, -0.16, -2.12, -1.78, 1.82, -0.48, 1.70, -0.37, -0.13, 0.000, 0.000, 0.000, 0, 0, 0, 0, 0, 0, 0, 0, 0, 0, 1774153949037, 0, 04:32:29.037
67, -0.27, -1.90, -2.52, 1.94, -1.25, 1.61, -1.10, -0.13, 0.000, 0.000, 0.000, 0, 0, 0, 0, 0, 0, 0, 0, 0, 0, 1774153949041, 0, 04:32:29.041
68, -0.77, -1.45, -2.86, 1.64, -1.77, 1.14, -1.78, 0.04, 0.000, 0.000, 0.000, 0, 0, 0, 0, 0, 0, 0, 0, 0, 0, 1774153949045, 0, 04:32:29.045
69, -1.19, -1.04, -2.88, 0.97, -1.92, 0.78, -2.27, 0.55, 0.000, 0.000, 0.000, 0, 0, 0, 0, 0, 0, 0, 0, 0, 0, 1774153949049, 0, 04:32:29.049
70, -1.84, -0.60, -2.42, 0.17, -1.65, 0.18, -2.45, 0.93, 0.000, 0.000, 0.000, 0, 0, 0, 0, 0, 0, 0, 0, 0, 0, 1774153949053, 0, 04:32:29.053
71, -2.28, -0.40, -1.72, -0.89, -1.10, -0.18, -2.27, 1.30, 0.000, 0.000, 0.000, 0, 0, 0, 0, 0, 0, 0, 0, 0, 0, 1774153949057, 0, 04:32:29.057
72, -2.54, -0.43, -0.63, -1.85, -0.52, -0.27, -1.68, 1.22, 0.000, 0.000, 0.000, 0, 0, 0, 0, 0, 0, 0, 0, 0, 0, 1774153949061, 0, 04:32:29.061
73, -2.31, -0.75, 0.20, -2.48, 0.14, -0.12, -0.78, 0.83, 0.000, 0.000, 0.000, 0, 0, 0, 0, 0, 0, 0, 0, 0, 0, 1774153949065, 0, 04:32:29.065
74, -1.75, -1.07, 1.09, -2.82, 0.49, 0.21, 0.21, 0.13, 0.000, 0.000, 0.000, 0, 0, 0, 0, 0, 0, 0, 0, 0, 0, 1774153949069, 0, 04:32:29.069
75, -0.95, -1.48, 1.51, -2.67, 0.66, 0.61, 1.14, -0.59, 0.000, 0.000, 0.000, 0, 0, 0, 0, 0, 0, 0, 0, 0, 0, 1774153949073, 0, 04:32:29.073
76, 0.06, -1.49, 1.73, -2.19, 0.53, 1.04, 1.84, -1.48, 0.000, 0.000, 0.000, 0, 0, 0, 0, 0, 0, 0, 0, 0, 0, 1774153949077, 0, 04:32:29.077
77, 1.05, -1.31, 1.59, -1.52, 0.22, 1.03, 2.12, -2.27, 0.000, 0.000, 0.000, 0, 0, 0, 0, 0, 0, 0, 0, 0, 0, 1774153949081, 0, 04:32:29.081
78, 1.79, -0.83, 1.29, -0.67, -0.15, 0.76, 1.99, -2.69, 0.000, 0.000, 0.000, 0, 0, 0, 0, 0, 0, 0, 0, 0, 0, 1774153949085, 0, 04:32:29.085
79, 2.28, 0.00, 0.81, -0.03, -0.49, 0.33, 1.52, -2.79, 0.000, 0.000, 0.000, 0, 0, 0, 0, 0, 0, 0, 0, 0, 0, 1774153949089, 0, 04:32:29.089
80, 2.34, 0.92, 0.60, 0.45, -0.55, -0.26, 0.96, -2.37, 0.000, 0.000, 0.000, 0, 0, 0, 0, 0, 0, 0, 0, 0, 0, 1774153949093, 0, 04:32:29.093
81, 2.03, 1.73, 0.54, 0.62, -0.36, -1.07, 0.25, -1.66, 0.000, 0.000, 0.000, 0, 0, 0, 0, 0, 0, 0, 0, 0, 0, 1774153949097, 0, 04:32:29.097
82, 1.45, 2.57, 0.58, 0.72, -0.04, -1.71, -0.29, -0.85, 0.000, 0.000, 0.000, 0, 0, 0, 0, 0, 0, 0, 0, 0, 0, 1774153949101, 0, 04:32:29.101
83, 0.62, 2.90, 0.92, 0.32, 0.74, -2.02, -0.59, 0.13, 0.000, 0.000, 0.000, 0, 0, 0, 0, 0, 0, 0, 0, 0, 0, 1774153949105, 0, 04:32:29.105
84, -0.02, 2.94, 1.33, 0.00, 1.39, -2.13, -0.67, 1.13, 0.000, 0.000, 0.000, 0, 0, 0, 0, 0, 0, 0, 0, 0, 0, 1774153949109, 0, 04:32:29.109
85, -0.45, 2.41, 1.72, -0.12, 1.95, -1.67, -0.39, 1.64, 0.000, 0.000, 0.000, 0, 0, 0, 0, 0, 0, 0, 0, 0, 0, 1774153949113, 0, 04:32:29.113
86, -0.77, 1.72, 2.01, 0.06, 2.12, -1.00, -0.11, 1.77, 0.000, 0.000, 0.000, 0, 0, 0, 0, 0, 0, 0, 0, 0, 0, 1774153949117, 0, 04:32:29.117
87, -0.71, 0.78, 1.77, 0.42, 2.06, 0.00, 0.33, 1.67, 0.000, 0.000, 0.000, 0, 0, 0, 0, 0, 0, 0, 0, 0, 0, 1774153949121, 0, 04:32:29.121
88, -0.38, -0.09, 1.32, 0.87, 1.52, 0.92, 0.53, 1.45, 0.000, 0.000, 0.000, 0, 0, 0, 0, 0, 0, 0, 0, 0, 0, 1774153949125, 0, 04:32:29.125
89, 0.04, -0.82, 0.68, 1.64, 0.79, 1.75, 0.58, 0.99, 0.000, 0.000, 0.000, 0, 0, 0, 0, 0, 0, 0, 0, 0, 0, 1774153949129, 0, 04:32:29.129
90, 0.33, -1.25, -0.32, 2.25, -0.30, 2.32, 0.28, 0.70, 0.000, 0.000, 0.000, 0, 0, 0, 0, 0, 0, 0, 0, 0, 0, 1774153949133, 0, 04:32:29.133
91, 0.56, -1.39, -1.22, 2.64, -1.26, 2.47, -0.23, 0.57, 0.000, 0.000, 0.000, 0, 0, 0, 0, 0, 0, 0, 0, 0, 0, 1774153949137, 0, 04:32:29.137
92, 0.44, -1.17, -2.16, 2.74, -1.99, 2.21, -0.81, 0.65, 0.000, 0.000, 0.000, 0, 0, 0, 0, 0, 0, 0, 0, 0, 0, 1774153949141, 0, 04:32:29.141
93, 0.10, -0.73, -2.63, 2.48, -2.52, 1.71, -1.37, 1.00, 0.000, 0.000, 0.000, 0, 0, 0, 0, 0, 0, 0, 0, 0, 0, 1774153949145, 0, 04:32:29.145
94, -0.44, -0.27, -2.76, 1.85, -2.61, 1.17, -1.79, 1.46, 0.000, 0.000, 0.000, 0, 0, 0, 0, 0, 0, 0, 0, 0, 0, 1774153949149, 0, 04:32:29.149
95, -0.93, 0.03, -2.41, 0.89, -2.23, 0.52, -1.89, 1.75, 0.000, 0.000, 0.000, 0, 0, 0, 0, 0, 0, 0, 0, 0, 0, 1774153949153, 0, 04:32:29.153
96, -1.51, 0.21, -1.85, -0.21, -1.65, 0.03, -1.53, 1.95, 0.000, 0.000, 0.000, 0, 0, 0, 0, 0, 0, 0, 0, 0, 0, 1774153949157, 0, 04:32:29.157
97, -1.81, 0.03, -0.90, -1.16, -0.97, -0.19, -0.95, 1.97, 0.000, 0.000, 0.000, 0, 0, 0, 0, 0, 0, 0, 0, 0, 0, 1774153949161, 0, 04:32:29.161
98, -1.50, -0.35, -0.07, -1.79, -0.30, -0.06, -0.06, 1.64, 0.000, 0.000, 0.000, 0, 0, 0, 0, 0, 0, 0, 0, 0, 0, 1774153949165, 0, 04:32:29.165
99, -1.10, -0.77, 0.60, -2.25, 0.14, 0.13, 0.97, 0.83, 0.000, 0.000, 0.000, 0, 0, 0, 0, 0, 0, 0, 0, 0, 0, 1774153949169, 0, 04:32:29.169
100, -0.29, -1.16, 1.00, -2.20, 0.38, 0.40, 1.93, -0.04, 0.000, 0.000, 0.000, 0, 0, 0, 0, 0, 0, 0, 0, 0, 0, 1774153949173, 0, 04:32:29.173
101, 0.70, -1.38, 1.07, -1.84, 0.34, 0.62, 2.55, -1.10, 0.000, 0.000, 0.000, 0, 0, 0, 0, 0, 0, 0, 0, 0, 0, 1774153949177, 0, 04:32:29.177
102, 1.46, -1.24, 0.95, -1.26, 0.18, 0.63, 2.87, -1.92, 0.000, 0.000, 0.000, 0, 0, 0, 0, 0, 0, 0, 0, 0, 0, 1774153949181, 0, 04:32:29.181
103, 2.17, -0.98, 0.48, -0.61, -0.12, 0.33, 2.79, -2.54, 0.000, 0.000, 0.000, 0, 0, 0, 0, 0, 0, 0, 0, 0, 0, 1774153949185, 0, 04:32:29.185
104, 2.50, -0.28, 0.15, -0.00, -0.29, -0.17, 2.32, -2.66, 0.000, 0.000, 0.000, 0, 0, 0, 0, 0, 0, 0, 0, 0, 0, 1774153949189, 0, 04:32:29.189
105, 2.48, 0.57, -0.09, 0.34, -0.22, -0.91, 1.56, -2.43, 0.000, 0.000, 0.000, 0, 0, 0, 0, 0, 0, 0, 0, 0, 0, 1774153949193, 0, 04:32:29.193
106, 2.09, 1.37, -0.21, 0.39, 0.10, -1.74, 0.76, -1.79, 0.000, 0.000, 0.000, 0, 0, 0, 0, 0, 0, 0, 0, 0, 0, 1774153949197, 0, 04:32:29.197
107, 1.37, 1.98, -0.20, 0.18, 0.61, -2.37, 0.12, -0.92, 0.000, 0.000, 0.000, 0, 0, 0, 0, 0, 0, 0, 0, 0, 0, 1774153949201, 0, 04:32:29.201
108, 0.51, 2.25, 0.22, -0.10, 1.40, -2.82, -0.27, -0.16, 0.000, 0.000, 0.000, 0, 0, 0, 0, 0, 0, 0, 0, 0, 0, 1774153949205, 0, 04:32:29.205
109, -0.37, 2.21, 0.75, -0.46, 2.02, -2.79, -0.44, 0.49, 0.000, 0.000, 0.000, 0, 0, 0, 0, 0, 0, 0, 0, 0, 0, 1774153949209, 0, 04:32:29.209
110, -1.02, 1.71, 1.18, -0.68, 2.57, -2.36, -0.39, 1.05, 0.000, 0.000, 0.000, 0, 0, 0, 0, 0, 0, 0, 0, 0, 0, 1774153949213, 0, 04:32:29.213
111, -1.22, 0.90, 1.39, -0.53, 2.99, -1.59, -0.12, 1.23, 0.000, 0.000, 0.000, 0, 0, 0, 0, 0, 0, 0, 0, 0, 0, 1774153949217, 0, 04:32:29.217
112, -1.26, 0.02, 1.46, -0.44, 2.84, -0.59, 0.16, 1.08, 0.000, 0.000, 0.000, 0, 0, 0, 0, 0, 0, 0, 0, 0, 0, 1774153949221, 0, 04:32:29.221
113, -1.00, -0.88, 1.09, 0.21, 2.38, 0.44, 0.20, 0.72, 0.000, 0.000, 0.000, 0, 0, 0, 0, 0, 0, 0, 0, 0, 0, 1774153949225, 0, 04:32:29.225
114, -0.65, -1.49, 0.53, 0.79, 1.48, 1.40, 0.22, 0.38, 0.000, 0.000, 0.000, 0, 0, 0, 0, 0, 0, 0, 0, 0, 0, 1774153949229, 0, 04:32:29.229
115, -0.38, -1.86, -0.41, 1.49, 0.51, 1.91, -0.20, -0.03, 0.000, 0.000, 0.000, 0, 0, 0, 0, 0, 0, 0, 0, 0, 0, 1774153949233, 0, 04:32:29.233
116, -0.21, -1.94, -1.20, 2.07, -0.55, 2.18, -0.69, -0.18, 0.000, 0.000, 0.000, 0, 0, 0, 0, 0, 0, 0, 0, 0, 0, 1774153949237, 0, 04:32:29.237
117, -0.33, -1.62, -2.01, 2.06, -1.36, 2.08, -1.38, -0.11, 0.000, 0.000, 0.000, 0, 0, 0, 0, 0, 0, 0, 0, 0, 0, 1774153949241, 0, 04:32:29.241
118, -0.64, -1.20, -2.39, 1.85, -1.90, 1.69, -2.14, 0.19, 0.000, 0.000, 0.000, 0, 0, 0, 0, 0, 0, 0, 0, 0, 0, 1774153949245, 0, 04:32:29.245
119, -1.19, -0.60, -2.29, 1.30, -2.04, 1.10, -2.53, 0.76, 0.000, 0.000, 0.000, 0, 0, 0, 0, 0, 0, 0, 0, 0, 0, 1774153949249, 0, 04:32:29.249
120, -1.69, -0.12, -1.86, 0.41, -1.79, 0.77, -2.65, 1.23, 0.000, 0.000, 0.000, 0, 0, 0, 0, 0, 0, 0, 0, 0, 0, 1774153949253, 0, 04:32:29.253
121, -2.07, 0.12, -1.22, -0.46, -1.35, 0.32, -2.39, 1.48, 0.000, 0.000, 0.000, 0, 0, 0, 0, 0, 0, 0, 0, 0, 0, 1774153949257, 0, 04:32:29.257
122, -2.17, 0.03, -0.26, -1.39, -0.88, 0.28, -1.60, 1.58, 0.000, 0.000, 0.000, 0, 0, 0, 0, 0, 0, 0, 0, 0, 0, 1774153949261, 0, 04:32:29.261
123, -2.00, -0.11, 0.58, -1.96, -0.23, 0.35, -0.60, 1.29, 0.000, 0.000, 0.000, 0, 0, 0, 0, 0, 0, 0, 0, 0, 0, 1774153949265, 0, 04:32:29.265
124, -1.36, -0.57, 1.37, -2.31, 0.12, 0.76, 0.34, 0.66, 0.000, 0.000, 0.000, 0, 0, 0, 0, 0, 0, 0, 0, 0, 0, 1774153949269, 0, 04:32:29.269
125, -0.50, -0.86, 1.86, -2.19, 0.23, 1.05, 1.38, -0.16, 0.000, 0.000, 0.000, 0, 0, 0, 0, 0, 0, 0, 0, 0, 0, 1774153949273, 0, 04:32:29.273
126, 0.55, -0.89, 1.90, -1.63, 0.10, 1.30, 2.14, -0.97, 0.000, 0.000, 0.000, 0, 0, 0, 0, 0, 0, 0, 0, 0, 0, 1774153949277, 0, 04:32:29.277
127, 1.61, -0.69, 1.71, -0.99, -0.19, 1.40, 2.46, -1.74, 0.000, 0.000, 0.000, 0, 0, 0, 0, 0, 0, 0, 0, 0, 0, 1774153949281, 0, 04:32:29.281
128, 2.29, -0.28, 1.27, -0.08, -0.59, 1.10, 2.43, -2.21, 0.000, 0.000, 0.000, 0, 0, 0, 0, 0, 0, 0, 0, 0, 0, 1774153949285, 0, 04:32:29.285
129, 2.78, 0.43, 0.83, 0.44, -0.83, 0.55, 2.05, -2.30, 0.000, 0.000, 0.000, 0, 0, 0, 0, 0, 0, 0, 0, 0, 0, 1774153949289, 0, 04:32:29.289
130, 2.82, 1.20, 0.58, 0.89, -0.81, -0.17, 1.50, -1.92, 0.000, 0.000, 0.000, 0, 0, 0, 0, 0, 0, 0, 0, 0, 0, 1774153949293, 0, 04:32:29.293
131, 2.44, 2.07, 0.33, 1.10, -0.67, -0.96, 0.87, -1.19, 0.000, 0.000, 0.000, 0, 0, 0, 0, 0, 0, 0, 0, 0, 0, 1774153949297, 0, 04:32:29.297
132, 1.88, 2.82, 0.35, 0.93, -0.18, -1.76, 0.29, -0.33, 0.000, 0.000, 0.000, 0, 0, 0, 0, 0, 0, 0, 0, 0, 0, 1774153949301, 0, 04:32:29.301
133, 1.18, 3.12, 0.66, 0.60, 0.56, -2.22, -0.05, 0.56, 0.000, 0.000, 0.000, 0, 0, 0, 0, 0, 0, 0, 0, 0, 0, 1774153949305, 0, 04:32:29.305
134, 0.40, 2.98, 0.98, 0.45, 1.25, -2.25, -0.14, 1.37, 0.000, 0.000, 0.000, 0, 0, 0, 0, 0, 0, 0, 0, 0, 0, 1774153949309, 0, 04:32:29.309
135, -0.13, 2.52, 1.35, 0.09, 1.83, -1.89, -0.04, 1.92, 0.000, 0.000, 0.000, 0, 0, 0, 0, 0, 0, 0, 0, 0, 0, 1774153949313, 0, 04:32:29.313
136, -0.37, 1.69, 1.62, 0.13, 2.23, -1.18, 0.40, 2.04, 0.000, 0.000, 0.000, 0, 0, 0, 0, 0, 0, 0, 0, 0, 0, 1774153949317, 0, 04:32:29.317
137, -0.36, 0.74, 1.42, 0.38, 2.28, -0.41, 0.64, 1.87, 0.000, 0.000, 0.000, 0, 0, 0, 0, 0, 0, 0, 0, 0, 0, 1774153949321, 0, 04:32:29.321
138, -0.21, -0.27, 1.04, 0.91, 1.78, 0.56, 0.94, 1.51, 0.000, 0.000, 0.000, 0, 0, 0, 0, 0, 0, 0, 0, 0, 0, 1774153949325, 0, 04:32:29.325
139, 0.17, -0.99, 0.19, 1.49, 1.04, 1.42, 0.93, 1.01, 0.000, 0.000, 0.000, 0, 0, 0, 0, 0, 0, 0, 0, 0, 0, 1774153949329, 0, 04:32:29.329
140, 0.37, -1.52, -0.75, 2.00, 0.00, 1.96, 0.54, 0.63, 0.000, 0.000, 0.000, 0, 0, 0, 0, 0, 0, 0, 0, 0, 0, 1774153949333, 0, 04:32:29.333
141, 0.42, -1.65, -1.68, 2.40, -0.81, 1.96, 0.02, 0.38, 0.000, 0.000, 0.000, 0, 0, 0, 0, 0, 0, 0, 0, 0, 0, 1774153949337, 0, 04:32:29.337
142, 0.27, -1.42, -2.62, 2.46, -1.57, 1.76, -0.52, 0.35, 0.000, 0.000, 0.000, 0, 0, 0, 0, 0, 0, 0, 0, 0, 0, 1774153949341, 0, 04:32:29.341
143, -0.19, -1.14, -2.94, 2.17, -2.04, 1.33, -1.28, 0.68, 0.000, 0.000, 0.000, 0, 0, 0, 0, 0, 0, 0, 0, 0, 0, 1774153949345, 0, 04:32:29.345
144, -0.74, -0.54, -3.00, 1.38, -2.05, 0.68, -1.80, 1.04, 0.000, 0.000, 0.000, 0, 0, 0, 0, 0, 0, 0, 0, 0, 0, 1774153949349, 0, 04:32:29.349
145, -1.34, -0.33, -2.56, 0.57, -1.74, 0.09, -1.86, 1.37, 0.000, 0.000, 0.000, 0, 0, 0, 0, 0, 0, 0, 0, 0, 0, 1774153949353, 0, 04:32:29.353
146, -1.80, -0.22, -1.87, -0.63, -1.22, -0.26, -1.72, 1.64, 0.000, 0.000, 0.000, 0, 0, 0, 0, 0, 0, 0, 0, 0, 0, 1774153949357, 0, 04:32:29.357
147, -2.00, -0.33, -1.07, -1.58, -0.45, -0.35, -1.18, 1.48, 0.000, 0.000, 0.000, 0, 0, 0, 0, 0, 0, 0, 0, 0, 0, 1774153949361, 0, 04:32:29.361
148, -2.04, -0.59, -0.04, -2.36, 0.24, -0.38, -0.22, 1.03, 0.000, 0.000, 0.000, 0, 0, 0, 0, 0, 0, 0, 0, 0, 0, 1774153949365, 0, 04:32:29.365
149, -1.47, -1.05, 0.65, -2.73, 0.63, 0.04, 0.66, 0.36, 0.000, 0.000, 0.000, 0, 0, 0, 0, 0, 0, 0, 0, 0, 0, 1774153949369, 0, 04:32:29.369
150, -0.76, -1.53, 1.10, -2.66, 0.81, 0.30, 1.59, -0.59, 0.000, 0.000, 0.000, 0, 0, 0, 0, 0, 0, 0, 0, 0, 0, 1774153949373, 0, 04:32:29.373
151, 0.25, -1.56, 1.32, -2.26, 0.78, 0.62, 2.16, -1.47, 0.000, 0.000, 0.000, 0, 0, 0, 0, 0, 0, 0, 0, 0, 0, 1774153949377, 0, 04:32:29.377
152, 1.14, -1.52, 1.17, -1.59, 0.57, 0.74, 2.49, -2.35, 0.000, 0.000, 0.000, 0, 0, 0, 0, 0, 0, 0, 0, 0, 0, 1774153949381, 0, 04:32:29.381
153, 1.78, -1.05, 0.94, -0.91, 0.15, 0.47, 2.33, -2.79, 0.000, 0.000, 0.000, 0, 0, 0, 0, 0, 0, 0, 0, 0, 0, 1774153949385, 0, 04:32:29.385
154, 2.29, -0.38, 0.52, -0.20, -0.00, -0.04, 1.72, -2.92, 0.000, 0.000, 0.000, 0, 0, 0, 0, 0, 0, 0, 0, 0, 0, 1774153949389, 0, 04:32:29.389
155, 2.20, 0.60, 0.25, 0.14, -0.11, -0.67, 1.16, -2.71, 0.000, 0.000, 0.000, 0, 0, 0, 0, 0, 0, 0, 0, 0, 0, 1774153949393, 0, 04:32:29.393
156, 1.82, 1.44, 0.23, 0.28, 0.16, -1.45, 0.37, -2.04, 0.000, 0.000, 0.000, 0, 0, 0, 0, 0, 0, 0, 0, 0, 0, 1774153949397, 0, 04:32:29.397
157, 1.13, 2.18, 0.42, 0.20, 0.59, -2.03, -0.19, -1.10, 0.000, 0.000, 0.000, 0, 0, 0, 0, 0, 0, 0, 0, 0, 0, 1774153949401, 0, 04:32:29.401
158, 0.36, 2.55, 0.80, 0.02, 1.24, -2.41, -0.66, -0.14, 0.000, 0.000, 0.000, 0, 0, 0, 0, 0, 0, 0, 0, 0, 0, 1774153949405, 0, 04:32:29.405
159, -0.32, 2.63, 1.33, -0.29, 2.01, -2.32, -0.78, 0.52, 0.000, 0.000, 0.000, 0, 0, 0, 0, 0, 0, 0, 0, 0, 0, 1774153949409, 0, 04:32:29.409
160, -0.88, 2.21, 1.74, -0.45, 2.40, -1.99, -0.72, 1.17, 0.000, 0.000, 0.000, 0, 0, 0, 0, 0, 0, 0, 0, 0, 0, 1774153949413, 0, 04:32:29.413
161, -1.10, 1.40, 1.99, -0.43, 2.73, -1.18, -0.44, 1.28, 0.000, 0.000, 0.000, 0, 0, 0, 0, 0, 0, 0, 0, 0, 0, 1774153949417, 0, 04:32:29.417
162, -1.04, 0.52, 2.00, -0.07, 2.65, -0.19, -0.08, 1.28, 0.000, 0.000, 0.000, 0, 0, 0, 0, 0, 0, 0, 0, 0, 0, 1774153949421, 0, 04:32:29.421
163, -0.70, -0.36, 1.55, 0.50, 2.07, 0.91, 0.12, 1.07, 0.000, 0.000, 0.000, 0, 0, 0, 0, 0, 0, 0, 0, 0, 0, 1774153949425, 0, 04:32:29.425
164, -0.39, -0.95, 0.86, 1.34, 1.11, 1.73, 0.20, 0.79, 0.000, 0.000, 0.000, 0, 0, 0, 0, 0, 0, 0, 0, 0, 0, 1774153949429, 0, 04:32:29.429
165, -0.09, -1.37, 0.06, 1.98, 0.06, 2.36, -0.14, 0.35, 0.000, 0.000, 0.000, 0, 0, 0, 0, 0, 0, 0, 0, 0, 0, 1774153949433, 0, 04:32:29.433
166, 0.23, -1.39, -0.86, 2.41, -0.96, 2.56, -0.67, 0.20, 0.000, 0.000, 0.000, 0, 0, 0, 0, 0, 0, 0, 0, 0, 0, 1774153949437, 0, 04:32:29.437
167, 0.11, -1.04, -1.70, 2.59, -1.78, 2.54, -1.26, 0.37, 0.000, 0.000, 0.000, 0, 0, 0, 0, 0, 0, 0, 0, 0, 0, 1774153949441, 0, 04:32:29.441
168, -0.12, -0.64, -2.18, 2.36, -2.32, 1.99, -1.75, 0.75, 0.000, 0.000, 0.000, 0, 0, 0, 0, 0, 0, 0, 0, 0, 0, 1774153949445, 0, 04:32:29.445
169, -0.62, -0.10, -2.15, 1.77, -2.55, 1.40, -2.18, 1.20, 0.000, 0.000, 0.000, 0, 0, 0, 0, 0, 0, 0, 0, 0, 0, 1774153949449, 0, 04:32:29.449
170, -1.15, 0.22, -1.84, 0.96, -2.31, 0.92, -2.24, 1.65, 0.000, 0.000, 0.000, 0, 0, 0, 0, 0, 0, 0, 0, 0, 0, 1774153949453, 0, 04:32:29.453
171, -1.53, 0.51, -1.20, -0.05, -1.81, 0.58, -1.84, 1.98, 0.000, 0.000, 0.000, 0, 0, 0, 0, 0, 0, 0, 0, 0, 0, 1774153949457, 0, 04:32:29.457
172, -1.59, 0.49, -0.39, -0.85, -1.15, 0.33, -1.24, 2.04, 0.000, 0.000, 0.000, 0, 0, 0, 0, 0, 0, 0, 0, 0, 0, 1774153949461, 0, 04:32:29.461
173, -1.38, 0.14, 0.48, -1.55, -0.45, 0.40, -0.34, 1.69, 0.000, 0.000, 0.000, 0, 0, 0, 0, 0, 0, 0, 0, 0, 0, 1774153949465, 0, 04:32:29.465
174, -0.91, -0.22, 1.14, -1.86, -0.16, 0.70, 0.80, 1.01, 0.000, 0.000, 0.000, 0, 0, 0, 0, 0, 0, 0, 0, 0, 0, 1774153949469, 0, 04:32:29.469
175, -0.05, -0.71, 1.49, -1.81, 0.02, 0.97, 1.83, 0.16, 0.000, 0.000, 0.000, 0, 0, 0, 0, 0, 0, 0, 0, 0, 0, 1774153949473, 0, 04:32:29.473
176, 0.99, -0.85, 1.58, -1.45, -0.05, 1.14, 2.54, -0.76, 0.000, 0.000, 0.000, 0, 0, 0, 0, 0, 0, 0, 0, 0, 0, 1774153949477, 0, 04:32:29.477
177, 1.86, -0.83, 1.34, -0.76, -0.20, 1.07, 2.83, -1.59, 0.000, 0.000, 0.000, 0, 0, 0, 0, 0, 0, 0, 0, 0, 0, 1774153949481, 0, 04:32:29.481
178, 2.67, -0.40, 0.88, -0.12, -0.52, 0.81, 2.91, -2.11, 0.000, 0.000, 0.000, 0, 0, 0, 0, 0, 0, 0, 0, 0, 0, 1774153949485, 0, 04:32:29.485
179, 3.04, 0.31, 0.47, 0.56, -0.75, 0.13, 2.46, -2.18, 0.000, 0.000, 0.000, 0, 0, 0, 0, 0, 0, 0, 0, 0, 0, 1774153949489, 0, 04:32:29.489
180, 3.04, 1.09, 0.11, 0.86, -0.70, -0.64, 1.84, -1.96, 0.000, 0.000, 0.000, 0, 0, 0, 0, 0, 0, 0, 0, 0, 0, 1774153949493, 0, 04:32:29.493
181, 2.56, 1.81, -0.08, 0.92, -0.42, -1.39, 1.13, -1.42, 0.000, 0.000, 0.000, 0, 0, 0, 0, 0, 0, 0, 0, 0, 0, 1774153949497, 0, 04:32:29.497
182, 1.82, 2.42, -0.05, 0.73, 0.19, -2.13, 0.43, -0.47, 0.000, 0.000, 0.000, 0, 0, 0, 0, 0, 0, 0, 0, 0, 0, 1774153949501, 0, 04:32:29.501
183, 0.95, 2.69, 0.29, 0.46, 1.05, -2.63, 0.10, 0.35, 0.000, 0.000, 0.000, 0, 0, 0, 0, 0, 0, 0, 0, 0, 0, 1774153949505, 0, 04:32:29.505
184, 0.19, 2.64, 0.67, -0.06, 1.73, -2.81, -0.01, 0.98, 0.000, 0.000, 0.000, 0, 0, 0, 0, 0, 0, 0, 0, 0, 0, 1774153949509, 0, 04:32:29.509
185, -0.39, 2.18, 1.00, -0.17, 2.35, -2.44, 0.10, 1.47, 0.000, 0.000, 0.000, 0, 0, 0, 0, 0, 0, 0, 0, 0, 0, 1774153949513, 0, 04:32:29.513
186, -0.72, 1.30, 1.30, -0.30, 2.68, -1.71, 0.34, 1.57, 0.000, 0.000, 0.000, 0, 0, 0, 0, 0, 0, 0, 0, 0, 0, 1774153949517, 0, 04:32:29.517
187, -0.67, 0.15, 1.19, -0.13, 2.63, -0.76, 0.59, 1.44, 0.000, 0.000, 0.000, 0, 0, 0, 0, 0, 0, 0, 0, 0, 0, 1774153949521, 0, 04:32:29.521
188, -0.53, -0.65, 0.90, 0.37, 2.30, 0.16, 0.63, 0.98, 0.000, 0.000, 0.000, 0, 0, 0, 0, 0, 0, 0, 0, 0, 0, 1774153949525, 0, 04:32:29.525
189, -0.35, -1.43, 0.15, 0.92, 1.54, 1.05, 0.62, 0.52, 0.000, 0.000, 0.000, 0, 0, 0, 0, 0, 0, 0, 0, 0, 0, 1774153949529, 0, 04:32:29.529
190, -0.05, -1.99, -0.76, 1.60, 0.54, 1.70, 0.22, 0.10, 0.000, 0.000, 0.000, 0, 0, 0, 0, 0, 0, 0, 0, 0, 0, 1774153949533, 0, 04:32:29.533
191, -0.01, -2.02, -1.66, 1.92, -0.34, 1.84, -0.27, -0.17, 0.000, 0.000, 0.000, 0, 0, 0, 0, 0, 0, 0, 0, 0, 0, 1774153949537, 0, 04:32:29.537
192, -0.17, -1.73, -2.38, 2.06, -1.18, 1.69, -0.99, -0.00, 0.000, 0.000, 0.000, 0, 0, 0, 0, 0, 0, 0, 0, 0, 0, 1774153949541, 0, 04:32:29.541
193, -0.55, -1.33, -2.83, 1.81, -1.62, 1.22, -1.78, 0.23, 0.000, 0.000, 0.000, 0, 0, 0, 0, 0, 0, 0, 0, 0, 0, 1774153949545, 0, 04:32:29.545
194, -1.09, -0.93, -2.84, 1.07, -1.75, 0.65, -2.23, 0.56, 0.000, 0.000, 0.000, 0, 0, 0, 0, 0, 0, 0, 0, 0, 0, 1774153949549, 0, 04:32:29.549
195, -1.74, -0.46, -2.37, 0.18, -1.52, 0.17, -2.39, 1.01, 0.000, 0.000, 0.000, 0, 0, 0, 0, 0, 0, 0, 0, 0, 0, 1774153949553, 0, 04:32:29.553
196, -2.14, -0.40, -1.57, -0.88, -1.05, -0.19, -2.14, 1.30, 0.000, 0.000, 0.000, 0, 0, 0, 0, 0, 0, 0, 0, 0, 0, 1774153949557, 0, 04:32:29.557
197, -2.44, -0.36, -0.72, -1.75, -0.38, -0.19, -1.67, 1.24, 0.000, 0.000, 0.000, 0, 0, 0, 0, 0, 0, 0, 0, 0, 0, 1774153949561, 0, 04:32:29.561
198, -2.22, -0.54, 0.31, -2.27, 0.24, -0.02, -0.83, 0.97, 0.000, 0.000, 0.000, 0, 0, 0, 0, 0, 0, 0, 0, 0, 0, 1774153949565, 0, 04:32:29.565
199, -1.56, -0.94, 1.11, -2.64, 0.57, 0.26, 0.26, 0.39, 0.000, 0.000, 0.000, 0, 0, 0, 0, 0, 0, 0, 0, 0, 0, 1774153949569, 0, 04:32:29.569
200, -0.82, -1.26, 1.61, -2.57, 0.74, 0.72, 1.04, -0.60, 0.000, 0.000, 0.000, 0, 0, 0, 0, 0, 0, 0, 0, 0, 0, 1774153949573, 0, 04:32:29.573
201, 0.24, -1.31, 1.76, -2.11, 0.54, 1.09, 1.84, -1.51, 0.000, 0.000, 0.000, 0, 0, 0, 0, 0, 0, 0, 0, 0, 0, 1774153949577, 0, 04:32:29.577
202, 1.17, -1.13, 1.64, -1.38, 0.31, 1.20, 2.17, -2.29, 0.000, 0.000, 0.000, 0, 0, 0, 0, 0, 0, 0, 0, 0, 0, 1774153949581, 0, 04:32:29.581
203, 1.98, -0.61, 1.41, -0.60, -0.09, 0.95, 2.12, -2.81, 0.000, 0.000, 0.000, 0, 0, 0, 0, 0, 0, 0, 0, 0, 0, 1774153949585, 0, 04:32:29.585
204, 2.41, 0.14, 0.97, 0.06, -0.46, 0.42, 1.62, -2.70, 0.000, 0.000, 0.000, 0, 0, 0, 0, 0, 0, 0, 0, 0, 0, 1774153949589, 0, 04:32:29.589
205, 2.45, 1.08, 0.62, 0.56, -0.51, -0.23, 1.03, -2.42, 0.000, 0.000, 0.000, 0, 0, 0, 0, 0, 0, 0, 0, 0, 0, 1774153949593, 0, 04:32:29.593
206, 2.09, 1.98, 0.54, 0.68, -0.27, -0.95, 0.37, -1.65, 0.000, 0.000, 0.000, 0, 0, 0, 0, 0, 0, 0, 0, 0, 0, 1774153949597, 0, 04:32:29.597
207, 1.54, 2.67, 0.67, 0.61, 0.07, -1.76, -0.29, -0.72, 0.000, 0.000, 0.000, 0, 0, 0, 0, 0, 0, 0, 0, 0, 0, 1774153949601, 0, 04:32:29.601
208, 0.74, 3.05, 0.97, 0.44, 0.71, -1.97, -0.54, 0.15, 0.000, 0.000, 0.000, 0, 0, 0, 0, 0, 0, 0, 0, 0, 0, 1774153949605, 0, 04:32:29.605
209, 0.12, 3.00, 1.40, 0.11, 1.43, -2.08, -0.64, 0.99, 0.000, 0.000, 0.000, 0, 0, 0, 0, 0, 0, 0, 0, 0, 0, 1774153949609, 0, 04:32:29.609
210, -0.36, 2.51, 1.87, 0.05, 2.07, -1.69, -0.49, 1.67, 0.000, 0.000, 0.000, 0, 0, 0, 0, 0, 0, 0, 0, 0, 0, 1774153949613, 0, 04:32:29.613
211, -0.62, 1.76, 1.99, 0.09, 2.20, -0.95, -0.11, 1.82, 0.000, 0.000, 0.000, 0, 0, 0, 0, 0, 0, 0, 0, 0, 0, 1774153949617, 0, 04:32:29.617
212, -0.58, 0.87, 1.84, 0.33, 2.14, 0.01, 0.25, 1.70, 0.000, 0.000, 0.000, 0, 0, 0, 0, 0, 0, 0, 0, 0, 0, 1774153949621, 0, 04:32:29.621
213, -0.26, -0.01, 1.44, 0.97, 1.63, 0.91, 0.54, 1.38, 0.000, 0.000, 0.000, 0, 0, 0, 0, 0, 0, 0, 0, 0, 0, 1774153949625, 0, 04:32:29.625
214, 0.08, -0.67, 0.68, 1.55, 0.77, 1.77, 0.52, 1.03, 0.000, 0.000, 0.000, 0, 0, 0, 0, 0, 0, 0, 0, 0, 0, 1774153949629, 0, 04:32:29.629
215, 0.47, -1.16, -0.37, 2.29, -0.19, 2.33, 0.30, 0.77, 0.000, 0.000, 0.000, 0, 0, 0, 0, 0, 0, 0, 0, 0, 0, 1774153949633, 0, 04:32:29.633
216, 0.50, -1.19, -1.26, 2.68, -1.21, 2.46, -0.21, 0.58, 0.000, 0.000, 0.000, 0, 0, 0, 0, 0, 0, 0, 0, 0, 0, 1774153949637, 0, 04:32:29.637
217, 0.48, -0.97, -2.03, 2.89, -2.00, 2.25, -0.83, 0.64, 0.000, 0.000, 0.000, 0, 0, 0, 0, 0, 0, 0, 0, 0, 0, 1774153949641, 0, 04:32:29.641
218, 0.05, -0.64, -2.55, 2.56, -2.54, 1.72, -1.36, 1.00, 0.000, 0.000, 0.000, 0, 0, 0, 0, 0, 0, 0, 0, 0, 0, 1774153949645, 0, 04:32:29.645
219, -0.45, -0.16, -2.57, 1.80, -2.54, 1.14, -1.81, 1.41, 0.000, 0.000, 0.000, 0, 0, 0, 0, 0, 0, 0, 0, 0, 0, 1774153949649, 0, 04:32:29.649
220, -0.89, 0.12, -2.30, 0.81, -2.21, 0.55, -1.82, 1.76, 0.000, 0.000, 0.000, 0, 0, 0, 0, 0, 0, 0, 0, 0, 0, 1774153949653, 0, 04:32:29.653
221, -1.38, 0.31, -1.65, -0.18, -1.68, 0.10, -1.54, 2.10, 0.000, 0.000, 0.000, 0, 0, 0, 0, 0, 0, 0, 0, 0, 0, 1774153949657, 0, 04:32:29.657
222, -1.67, 0.14, -0.75, -1.18, -0.93, -0.14, -0.95, 1.91, 0.000, 0.000, 0.000, 0, 0, 0, 0, 0, 0, 0, 0, 0, 0, 1774153949661, 0, 04:32:29.661
223, -1.57, -0.30, -0.00, -1.77, -0.30, -0.07, 0.00, 1.58, 0.000, 0.000, 0.000, 0, 0, 0, 0, 0, 0, 0, 0, 0, 0, 1774153949665, 0, 04:32:29.665
224, -1.15, -0.69, 0.66, -2.23, 0.16, 0.16, 0.96, 0.79, 0.000, 0.000, 0.000, 0, 0, 0, 0, 0, 0, 0, 0, 0, 0, 1774153949669, 0, 04:32:29.669
225, -0.25, -1.03, 1.11, -2.17, 0.37, 0.53, 1.83, -0.08, 0.000, 0.000, 0.000, 0, 0, 0, 0, 0, 0, 0, 0, 0, 0, 1774153949673, 0, 04:32:29.673
226, 0.82, -1.35, 1.12, -1.86, 0.35, 0.66, 2.54, -1.12, 0.000, 0.000, 0.000, 0, 0, 0, 0, 0, 0, 0, 0, 0, 0, 1774153949677, 0, 04:32:29.677
227, 1.62, -1.26, 0.96, -1.26, 0.10, 0.59, 2.85, -1.95, 0.000, 0.000, 0.000, 0, 0, 0, 0, 0, 0, 0, 0, 0, 0, 1774153949681, 0, 04:32:29.681
228, 2.27, -0.87, 0.54, -0.60, -0.11, 0.27, 2.75, -2.43, 0.000, 0.000, 0.000, 0, 0, 0, 0, 0, 0, 0, 0, 0, 0, 1774153949685, 0, 04:32:29.685
229, 2.66, -0.28, 0.17, 0.02, -0.27, -0.26, 2.26, -2.67, 0.000, 0.000, 0.000, 0, 0, 0, 0, 0, 0, 0, 0, 0, 0, 1774153949689, 0, 04:32:29.689
230, 2.50, 0.62, -0.19, 0.33, -0.17, -1.01, 1.59, -2.45, 0.000, 0.000, 0.000, 0, 0, 0, 0, 0, 0, 0, 0, 0, 0, 1774153949693, 0, 04:32:29.693
231, 2.11, 1.34, -0.29, 0.34, 0.06, -1.77, 0.73, -1.92, 0.000, 0.000, 0.000, 0, 0, 0, 0, 0, 0, 0, 0, 0, 0, 1774153949697, 0, 04:32:29.697
232, 1.40, 2.02, -0.09, 0.29, 0.54, -2.50, 0.09, -1.06, 0.000, 0.000, 0.000, 0, 0, 0, 0, 0, 0, 0, 0, 0, 0, 1774153949701, 0, 04:32:29.701
233, 0.54, 2.41, 0.26, -0.12, 1.23, -2.80, -0.27, -0.26, 0.000, 0.000, 0.000, 0, 0, 0, 0, 0, 0, 0, 0, 0, 0, 1774153949705, 0, 04:32:29.705
234, -0.22, 2.29, 0.66, -0.48, 2.03, -2.93, -0.62, 0.57, 0.000, 0.000, 0.000, 0, 0, 0, 0, 0, 0, 0, 0, 0, 0, 1774153949709, 0, 04:32:29.709
235, -0.84, 1.77, 1.13, -0.81, 2.67, -2.52, -0.48, 1.04, 0.000, 0.000, 0.000, 0, 0, 0, 0, 0, 0, 0, 0, 0, 0, 1774153949713, 0, 04:32:29.713
236, -1.14, 1.03, 1.42, -0.63, 2.93, -1.68, -0.28, 1.14, 0.000, 0.000, 0.000, 0, 0, 0, 0, 0, 0, 0, 0, 0, 0, 1774153949717, 0, 04:32:29.717
237, -1.23, 0.08, 1.41, -0.37, 2.88, -0.72, 0.01, 1.08, 0.000, 0.000, 0.000, 0, 0, 0, 0, 0, 0, 0, 0, 0, 0, 1774153949721, 0, 04:32:29.721
238, -0.93, -0.81, 1.12, 0.16, 2.35, 0.30, 0.14, 0.72, 0.000, 0.000, 0.000, 0, 0, 0, 0, 0, 0, 0, 0, 0, 0, 1774153949725, 0, 04:32:29.725
239, -0.57, -1.47, 0.45, 0.80, 1.57, 1.23, 0.12, 0.23, 0.000, 0.000, 0.000, 0, 0, 0, 0, 0, 0, 0, 0, 0, 0, 1774153949729, 0, 04:32:29.729
240, -0.40, -1.90, -0.35, 1.44, 0.44, 1.85, -0.24, -0.09, 0.000, 0.000, 0.000, 0, 0, 0, 0, 0, 0, 0, 0, 0, 0, 1774153949733, 0, 04:32:29.733
241, -0.26, -1.88, -1.22, 1.91, -0.44, 2.14, -0.87, -0.29, 0.000, 0.000, 0.000, 0, 0, 0, 0, 0, 0, 0, 0, 0, 0, 1774153949737, 0, 04:32:29.737
242, -0.25, -1.61, -1.90, 2.10, -1.43, 2.00, -1.51, -0.17, 0.000, 0.000, 0.000, 0, 0, 0, 0, 0, 0, 0, 0, 0, 0, 1774153949741, 0, 04:32:29.741
243, -0.65, -1.18, -2.32, 1.89, -1.89, 1.63, -2.12, 0.13, 0.000, 0.000, 0.000, 0, 0, 0, 0, 0, 0, 0, 0, 0, 0, 1774153949745, 0, 04:32:29.745
244, -1.07, -0.62, -2.33, 1.26, -2.10, 1.14, -2.53, 0.63, 0.000, 0.000, 0.000, 0, 0, 0, 0, 0, 0, 0, 0, 0, 0, 1774153949749, 0, 04:32:29.749
245, -1.68, -0.06, -1.87, 0.47, -1.90, 0.69, -2.56, 1.12, 0.000, 0.000, 0.000, 0, 0, 0, 0, 0, 0, 0, 0, 0, 0, 1774153949753, 0, 04:32:29.753
246, -1.99, 0.10, -1.15, -0.54, -1.45, 0.38, -2.35, 1.36, 0.000, 0.000, 0.000, 0, 0, 0, 0, 0, 0, 0, 0, 0, 0, 1774153949757, 0, 04:32:29.757
247, -2.18, 0.00, -0.26, -1.43, -0.84, 0.21, -1.77, 1.51, 0.000, 0.000, 0.000, 0, 0, 0, 0, 0, 0, 0, 0, 0, 0, 1774153949761, 0, 04:32:29.761
248, -1.95, -0.24, 0.68, -2.02, -0.29, 0.36, -0.79, 1.24, 0.000, 0.000, 0.000, 0, 0, 0, 0, 0, 0, 0, 0, 0, 0, 1774153949765, 0, 04:32:29.765
249, -1.30, -0.51, 1.24, -2.35, 0.11, 0.65, 0.28, 0.59, 0.000, 0.000, 0.000, 0, 0, 0, 0, 0, 0, 0, 0, 0, 0, 1774153949769, 0, 04:32:29.769
250, -0.50, -0.73, 1.78, -2.13, 0.24, 1.04, 1.22, -0.35, 0.000, 0.000, 0.000, 0, 0, 0, 0, 0, 0, 0, 0, 0, 0, 1774153949773, 0, 04:32:29.773
251, 0.52, -0.94, 1.88, -1.74, 0.06, 1.29, 2.00, -1.10, 0.000, 0.000, 0.000, 0, 0, 0, 0, 0, 0, 0, 0, 0, 0, 1774153949777, 0, 04:32:29.777
252, 1.56, -0.72, 1.74, -1.01, -0.18, 1.37, 2.25, -1.90, 0.000, 0.000, 0.000, 0, 0, 0, 0, 0, 0, 0, 0, 0, 0, 1774153949781, 0, 04:32:29.781
253, 2.41, -0.30, 1.36, -0.30, -0.62, 0.96, 2.36, -2.32, 0.000, 0.000, 0.000, 0, 0, 0, 0, 0, 0, 0, 0, 0, 0, 1774153949785, 0, 04:32:29.785
254, 2.77, 0.43, 0.76, 0.45, -0.84, 0.49, 1.94, -2.30, 0.000, 0.000, 0.000, 0, 0, 0, 0, 0, 0, 0, 0, 0, 0, 1774153949789, 0, 04:32:29.789
255, 2.92, 1.22, 0.53, 0.96, -0.92, -0.25, 1.37, -2.14, 0.000, 0.000, 0.000, 0, 0, 0, 0, 0, 0, 0, 0, 0, 0, 1774153949793, 0, 04:32:29.793
0, 2.52, 2.18, 0.23, 1.02, -0.73, -1.09, 0.79, -1.39, 0.000, 0.000, 0.000, 0, 0, 0, 0, 0, 0, 0, 0, 0, 0, 1774153949797, 0, 04:32:29.797
1, 1.96, 2.77, 0.30, 0.93, -0.20, -1.85, 0.10, -0.42, 0.000, 0.000, 0.000, 0, 0, 0, 0, 0, 0, 0, 0, 0, 0, 1774153949801, 0, 04:32:29.801
2, 1.02, 3.14, 0.62, 0.72, 0.51, -2.32, -0.16, 0.42, 0.000, 0.000, 0.000, 0, 0, 0, 0, 0, 0, 0, 0, 0, 0, 1774153949805, 0, 04:32:29.805
3, 0.36, 2.96, 0.99, 0.31, 1.22, -2.30, -0.21, 1.20, 0.000, 0.000, 0.000, 0, 0, 0, 0, 0, 0, 0, 0, 0, 0, 1774153949809, 0, 04:32:29.809
4, -0.24, 2.49, 1.27, 0.03, 1.85, -2.05, -0.07, 1.83, 0.000, 0.000, 0.000, 0, 0, 0, 0, 0, 0, 0, 0, 0, 0, 1774153949813, 0, 04:32:29.813
5, -0.49, 1.66, 1.53, 0.03, 2.20, -1.43, 0.17, 1.91, 0.000, 0.000, 0.000, 0, 0, 0, 0, 0, 0, 0, 0, 0, 0, 1774153949817, 0, 04:32:29.817
6, -0.44, 0.65, 1.40, 0.32, 2.12, -0.42, 0.65, 1.78, 0.000, 0.000, 0.000, 0, 0, 0, 0, 0, 0, 0, 0, 0, 0, 1774153949821, 0, 04:32:29.821
7, -0.24, -0.30, 0.94, 0.77, 1.55, 0.49, 0.79, 1.38, 0.000, 0.000, 0.000, 0, 0, 0, 0, 0, 0, 0, 0, 0, 0, 1774153949825, 0, 04:32:29.825
8, 0.06, -1.11, 0.11, 1.37, 1.02, 1.25, 0.75, 0.90, 0.000, 0.000, 0.000, 0, 0, 0, 0, 0, 0, 0, 0, 0, 0, 1774153949829, 0, 04:32:29.829
9, 0.33, -1.60, -0.82, 2.00, -0.01, 1.71, 0.46, 0.55, 0.000, 0.000, 0.000, 0, 0, 0, 0, 0, 0, 0, 0, 0, 0, 1774153949833, 0, 04:32:29.833
10, 0.43, -1.62, -1.78, 2.38, -0.96, 1.89, -0.09, 0.36, 0.000, 0.000, 0.000, 0, 0, 0, 0, 0, 0, 0, 0, 0, 0, 1774153949837, 0, 04:32:29.837
11, 0.21, -1.47, -2.48, 2.30, -1.73, 1.74, -0.80, 0.21, 0.000, 0.000, 0.000, 0, 0, 0, 0, 0, 0, 0, 0, 0, 0, 1774153949841, 0, 04:32:29.841
12, -0.12, -1.19, -3.16, 2.01, -2.13, 1.12, -1.39, 0.52, 0.000, 0.000, 0.000, 0, 0, 0, 0, 0, 0, 0, 0, 0, 0, 1774153949845, 0, 04:32:29.845
13, -0.71, -0.71, -3.12, 1.32, -2.19, 0.51, -1.90, 0.89, 0.000, 0.000, 0.000, 0, 0, 0, 0, 0, 0, 0, 0, 0, 0, 1774153949849, 0, 04:32:29.849
14, -1.36, -0.45, -2.71, 0.41, -1.89, -0.02, -2.00, 1.23, 0.000, 0.000, 0.000, 0, 0, 0, 0, 0, 0, 0, 0, 0, 0, 1774153949853, 0, 04:32:29.853
15, -1.86, -0.35, -2.05, -0.64, -1.31, -0.39, -1.78, 1.50, 0.000, 0.000, 0.000, 0, 0, 0, 0, 0, 0, 0, 0, 0, 0, 1774153949857, 0, 04:32:29.857
16, -2.12, -0.37, -1.11, -1.55, -0.55, -0.57, -1.15, 1.39, 0.000, 0.000, 0.000, 0, 0, 0, 0, 0, 0, 0, 0, 0, 0, 1774153949861, 0, 04:32:29.861
17, -1.93, -0.83, -0.19, -2.43, 0.16, -0.41, -0.39, 1.06, 0.000, 0.000, 0.000, 0, 0, 0, 0, 0, 0, 0, 0, 0, 0, 1774153949865, 0, 04:32:29.865
18, -1.55, -1.12, 0.54, -2.79, 0.57, -0.10, 0.54, 0.31, 0.000, 0.000, 0.000, 0, 0, 0, 0, 0, 0, 0, 0, 0, 0, 1774153949869, 0, 04:32:29.869
19, -0.79, -1.54, 1.06, -2.69, 0.79, 0.21, 1.37, -0.60, 0.000, 0.000, 0.000, 0, 0, 0, 0, 0, 0, 0, 0, 0, 0, 1774153949873, 0, 04:32:29.873
20, 0.13, -1.71, 1.24, -2.35, 0.65, 0.50, 2.17, -1.68, 0.000, 0.000, 0.000, 0, 0, 0, 0, 0, 0, 0, 0, 0, 0, 1774153949877, 0, 04:32:29.877
21, 1.03, -1.57, 1.07, -1.69, 0.42, 0.55, 2.35, -2.49, 0.000, 0.000, 0.000, 0, 0, 0, 0, 0, 0, 0, 0, 0, 0, 1774153949881, 0, 04:32:29.881
22, 1.74, -1.11, 0.75, -0.99, 0.11, 0.33, 2.15, -3.02, 0.000, 0.000, 0.000, 0, 0, 0, 0, 0, 0, 0, 0, 0, 0, 1774153949885, 0, 04:32:29.885
23, 2.14, -0.44, 0.40, -0.47, -0.18, -0.22, 1.78, -3.05, 0.000, 0.000, 0.000, 0, 0, 0, 0, 0, 0, 0, 0, 0, 0, 1774153949889, 0, 04:32:29.889
24, 2.16, 0.52, 0.14, 0.07, -0.22, -0.89, 1.06, -2.86, 0.000, 0.000, 0.000, 0, 0, 0, 0, 0, 0, 0, 0, 0, 0, 1774153949893, 0, 04:32:29.893
25, 1.78, 1.38, 0.00, 0.20, 0.06, -1.64, 0.18, -2.20, 0.000, 0.000, 0.000, 0, 0, 0, 0, 0, 0, 0, 0, 0, 0, 1774153949897, 0, 04:32:29.897
26, 1.10, 2.03, 0.29, 0.17, 0.54, -2.20, -0.44, -1.32, 0.000, 0.000, 0.000, 0, 0, 0, 0, 0, 0, 0, 0, 0, 0, 1774153949901, 0, 04:32:29.901
27, 0.28, 2.46, 0.64, -0.15, 1.14, -2.53, -0.83, -0.21, 0.000, 0.000, 0.000, 0, 0, 0, 0, 0, 0, 0, 0, 0, 0, 1774153949905, 0, 04:32:29.905
28, -0.38, 2.51, 1.21, -0.48, 1.75, -2.57, -1.01, 0.46, 0.000, 0.000, 0.000, 0, 0, 0, 0, 0, 0, 0, 0, 0, 0, 1774153949909, 0, 04:32:29.909
29, -0.92, 2.10, 1.63, -0.58, 2.32, -2.06, -0.84, 1.04, 0.000, 0.000, 0.000, 0, 0, 0, 0, 0, 0, 0, 0, 0, 0, 1774153949913, 0, 04:32:29.913
30, -1.20, 1.33, 1.92, -0.59, 2.51, -1.31, -0.51, 1.18, 0.000, 0.000, 0.000, 0, 0, 0, 0, 0, 0, 0, 0, 0, 0, 1774153949917, 0, 04:32:29.917
31, -1.17, 0.35, 1.78, -0.20, 2.44, -0.32, -0.29, 1.20, 0.000, 0.000, 0.000, 0, 0, 0, 0, 0, 0, 0, 0, 0, 0, 1774153949921, 0, 04:32:29.921
32, -0.83, -0.42, 1.42, 0.47, 1.91, 0.74, 0.00, 0.78, 0.000, 0.000, 0.000, 0, 0, 0, 0, 0, 0, 0, 0, 0, 0, 1774153949925, 0, 04:32:29.925
33, -0.46, -1.07, 0.68, 1.13, 1.02, 1.60, 0.04, 0.45, 0.000, 0.000, 0.000, 0, 0, 0, 0, 0, 0, 0, 0, 0, 0, 1774153949929, 0, 04:32:29.929
34, -0.18, -1.43, -0.18, 1.87, -0.00, 2.28, -0.26, 0.17, 0.000, 0.000, 0.000, 0, 0, 0, 0, 0, 0, 0, 0, 0, 0, 1774153949933, 0, 04:32:29.933
35, 0.08, -1.44, -1.00, 2.22, -1.04, 2.46, -0.77, 0.11, 0.000, 0.000, 0.000, 0, 0, 0, 0, 0, 0, 0, 0, 0, 0, 1774153949937, 0, 04:32:29.937
36, 0.04, -1.18, -1.75, 2.47, -1.92, 2.36, -1.41, 0.20, 0.000, 0.000, 0.000, 0, 0, 0, 0, 0, 0, 0, 0, 0, 0, 1774153949941, 0, 04:32:29.941
37, -0.31, -0.73, -2.34, 2.24, -2.53, 1.87, -1.91, 0.66, 0.000, 0.000, 0.000, 0, 0, 0, 0, 0, 0, 0, 0, 0, 0, 1774153949945, 0, 04:32:29.945
38, -0.73, -0.25, -2.37, 1.72, -2.64, 1.30, -2.38, 1.10, 0.000, 0.000, 0.000, 0, 0, 0, 0, 0, 0, 0, 0, 0, 0, 1774153949949, 0, 04:32:29.949
39, -1.32, 0.09, -2.01, 0.84, -2.39, 0.85, -2.37, 1.51, 0.000, 0.000, 0.000, 0, 0, 0, 0, 0, 0, 0, 0, 0, 0, 1774153949953, 0, 04:32:29.953
40, -1.59, 0.37, -1.32, -0.15, -1.84, 0.28, -2.05, 1.89, 0.000, 0.000, 0.000, 0, 0, 0, 0, 0, 0, 0, 0, 0, 0, 1774153949957, 0, 04:32:29.957
41, -1.73, 0.29, -0.59, -1.01, -1.30, 0.24, -1.30, 1.85, 0.000, 0.000, 0.000, 0, 0, 0, 0, 0, 0, 0, 0, 0, 0, 1774153949961, 0, 04:32:29.961
42, -1.60, 0.01, 0.26, -1.77, -0.66, 0.33, -0.41, 1.51, 0.000, 0.000, 0.000, 0, 0, 0, 0, 0, 0, 0, 0, 0, 0, 1774153949965, 0, 04:32:29.965
43, -1.00, -0.48, 1.03, -2.00, -0.22, 0.53, 0.66, 0.94, 0.000, 0.000, 0.000, 0, 0, 0, 0, 0, 0, 0, 0, 0, 0, 1774153949969, 0, 04:32:29.969
44, -0.29, -0.76, 1.29, -2.04, -0.09, 0.76, 1.61, -0.08, 0.000, 0.000, 0.000, 0, 0, 0, 0, 0, 0, 0, 0, 0, 0, 1774153949973, 0, 04:32:29.973
45, 0.77, -0.89, 1.42, -1.62, -0.09, 1.04, 2.42, -0.86, 0.000, 0.000, 0.000, 0, 0, 0, 0, 0, 0, 0, 0, 0, 0, 1774153949977, 0, 04:32:29.977
46, 1.77, -0.91, 1.20, -0.90, -0.32, 0.93, 2.73, -1.73, 0.000, 0.000, 0.000, 0, 0, 0, 0, 0, 0, 0, 0, 0, 0, 1774153949981, 0, 04:32:29.981
47, 2.48, -0.52, 0.78, -0.32, -0.60, 0.60, 2.66, -2.26, 0.000, 0.000, 0.000, 0, 0, 0, 0, 0, 0, 0, 0, 0, 0, 1774153949985, 0, 04:32:29.985
48, 2.96, 0.16, 0.28, 0.36, -0.84, 0.02, 2.26, -2.28, 0.000, 0.000, 0.000, 0, 0, 0, 0, 0, 0, 0, 0, 0, 0, 1774153949989, 0, 04:32:29.989
49, 2.99, 1.05, -0.11, 0.69, -0.73, -0.79, 1.69, -2.13, 0.000, 0.000, 0.000, 0, 0, 0, 0, 0, 0, 0, 0, 0, 0, 1774153949993, 0, 04:32:29.993
50, 2.42, 1.70, -0.23, 0.81, -0.57, -1.66, 0.90, -1.45, 0.000, 0.000, 0.000, 0, 0, 0, 0, 0, 0, 0, 0, 0, 0, 1774153949997, 0, 04:32:29.997
51, 1.73, 2.36, -0.17, 0.57, 0.13, -2.30, 0.29, -0.66, 0.000, 0.000, 0.000, 0, 0, 0, 0, 0, 0, 0, 0, 0, 0, 1774153950001, 0, 04:32:30.001
52, 0.93, 2.58, 0.08, 0.23, 0.81, -2.84, -0.02, 0.20, 0.000, 0.000, 0.000, 0, 0, 0, 0, 0, 0, 0, 0, 0, 0, 1774153950005, 0, 04:32:30.005
53, 0.19, 2.45, 0.53, -0.12, 1.62, -2.88, -0.21, 0.88, 0.000, 0.000, 0.000, 0, 0, 0, 0, 0, 0, 0, 0, 0, 0, 1774153950009, 0, 04:32:30.009
54, -0.56, 1.94, 0.93, -0.44, 2.18, -2.61, -0.06, 1.32, 0.000, 0.000, 0.000, 0, 0, 0, 0, 0, 0, 0, 0, 0, 0, 1774153950013, 0, 04:32:30.013
55, -0.83, 1.16, 1.20, -0.48, 2.60, -1.84, 0.13, 1.52, 0.000, 0.000, 0.000, 0, 0, 0, 0, 0, 0, 0, 0, 0, 0, 1774153950017, 0, 04:32:30.017
56, -0.81, 0.19, 1.07, -0.19, 2.60, -0.97, 0.41, 1.30, 0.000, 0.000, 0.000, 0, 0, 0, 0, 0, 0, 0, 0, 0, 0, 1774153950021, 0, 04:32:30.021
57, -0.80, -0.84, 0.69, 0.25, 2.06, 0.01, 0.56, 0.83, 0.000, 0.000, 0.000, 0, 0, 0, 0, 0, 0, 0, 0, 0, 0, 1774153950025, 0, 04:32:30.025
58, -0.51, -1.64, -0.10, 0.83, 1.35, 0.90, 0.53, 0.32, 0.000, 0.000, 0.000, 0, 0, 0, 0, 0, 0, 0, 0, 0, 0, 1774153950029, 0, 04:32:30.029
59, -0.23, -1.95, -0.97, 1.42, 0.31, 1.51, 0.17, -0.06, 0.000, 0.000, 0.000, 0, 0, 0, 0, 0, 0, 0, 0, 0, 0, 1774153950033, 0, 04:32:30.033
60, -0.16, -2.17, -1.84, 1.89, -0.56, 1.69, -0.43, -0.20, 0.000, 0.000, 0.000, 0, 0, 0, 0, 0, 0, 0, 0, 0, 0, 1774153950037, 0, 04:32:30.037
61, -0.26, -1.95, -2.55, 1.87, -1.38, 1.55, -1.23, -0.16, 0.000, 0.000, 0.000, 0, 0, 0, 0, 0, 0, 0, 0, 0, 0, 1774153950041, 0, 04:32:30.041
62, -0.69, -1.58, -2.98, 1.58, -1.83, 1.11, -1.93, 0.07, 0.000, 0.000, 0.000, 0, 0, 0, 0, 0, 0, 0, 0, 0, 0, 1774153950045, 0, 04:32:30.045
63, -1.35, -0.95, -2.86, 0.87, -1.78, 0.56, -2.35, 0.37, 0.000, 0.000, 0.000, 0, 0, 0, 0, 0, 0, 0, 0, 0, 0, 1774153950049, 0, 04:32:30.049
64, -1.84, -0.59, -2.44, 0.03, -1.59, 0.11, -2.49, 0.89, 0.000, 0.000, 0.000, 0, 0, 0, 0, 0, 0, 0, 0, 0, 0, 1774153950053, 0, 04:32:30.053
65, -2.36, -0.33, -1.74, -0.94, -1.22, -0.29, -2.28, 1.17, 0.000, 0.000, 0.000, 0, 0, 0, 0, 0, 0, 0, 0, 0, 0, 1774153950057, 0, 04:32:30.057
66, -2.47, -0.56, -0.74, -1.85, -0.50, -0.31, -1.74, 1.10, 0.000, 0.000, 0.000, 0, 0, 0, 0, 0, 0, 0, 0, 0, 0, 1774153950061, 0, 04:32:30.061
67, -2.40, -0.68, 0.19, -2.54, 0.08, -0.13, -0.84, 0.85, 0.000, 0.000, 0.000, 0, 0, 0, 0, 0, 0, 0, 0, 0, 0, 1774153950065, 0, 04:32:30.065
68, -1.86, -1.09, 1.00, -2.79, 0.42, 0.12, 0.14, 0.05, 0.000, 0.000, 0.000, 0, 0, 0, 0, 0, 0, 0, 0, 0, 0, 1774153950069, 0, 04:32:30.069
69, -0.96, -1.35, 1.40, -2.68, 0.58, 0.52, 1.02, -0.70, 0.000, 0.000, 0.000, 0, 0, 0, 0, 0, 0, 0, 0, 0, 0, 1774153950073, 0, 04:32:30.073
70, 0.06, -1.58, 1.63, -2.19, 0.45, 0.84, 1.69, -1.67, 0.000, 0.000, 0.000, 0, 0, 0, 0, 0, 0, 0, 0, 0, 0, 1774153950077, 0, 04:32:30.077
71, 1.03, -1.26, 1.50, -1.49, 0.05, 0.89, 2.00, -2.33, 0.000, 0.000, 0.000, 0, 0, 0, 0, 0, 0, 0, 0, 0, 0, 1774153950081, 0, 04:32:30.081
72, 1.72, -0.79, 1.20, -0.68, -0.31, 0.74, 1.89, -2.81, 0.000, 0.000, 0.000, 0, 0, 0, 0, 0, 0, 0, 0, 0, 0, 1774153950085, 0, 04:32:30.085
73, 2.28, -0.06, 0.75, -0.09, -0.55, 0.34, 1.48, -2.81, 0.000, 0.000, 0.000, 0, 0, 0, 0, 0, 0, 0, 0, 0, 0, 1774153950089, 0, 04:32:30.089
74, 2.26, 0.90, 0.37, 0.32, -0.64, -0.46, 0.85, -2.51, 0.000, 0.000, 0.000, 0, 0, 0, 0, 0, 0, 0, 0, 0, 0, 1774153950093, 0, 04:32:30.093
75, 1.99, 1.75, 0.33, 0.60, -0.50, -1.10, 0.12, -1.84, 0.000, 0.000, 0.000, 0, 0, 0, 0, 0, 0, 0, 0, 0, 0, 1774153950097, 0, 04:32:30.097
76, 1.30, 2.48, 0.52, 0.54, -0.05, -1.83, -0.37, -0.92, 0.000, 0.000, 0.000, 0, 0, 0, 0, 0, 0, 0, 0, 0, 0, 1774153950101, 0, 04:32:30.101
77, 0.65, 2.87, 0.85, 0.35, 0.61, -2.09, -0.72, 0.06, 0.000, 0.000, 0.000, 0, 0, 0, 0, 0, 0, 0, 0, 0, 0, 1774153950105, 0, 04:32:30.105
78, -0.10, 2.77, 1.36, 0.07, 1.32, -2.23, -0.75, 0.88, 0.000, 0.000, 0.000, 0, 0, 0, 0, 0, 0, 0, 0, 0, 0, 1774153950109, 0, 04:32:30.109
79, -0.63, 2.45, 1.69, -0.04, 1.82, -1.82, -0.54, 1.53, 0.000, 0.000, 0.000, 0, 0, 0, 0, 0, 0, 0, 0, 0, 0, 1774153950113, 0, 04:32:30.113
80, -0.75, 1.71, 1.86, -0.04, 2.16, -1.12, -0.19, 1.76, 0.000, 0.000, 0.000, 0, 0, 0, 0, 0, 0, 0, 0, 0, 0, 1774153950117, 0, 04:32:30.117
81, -0.71, 0.70, 1.74, 0.27, 1.94, -0.17, 0.19, 1.54, 0.000, 0.000, 0.000, 0, 0, 0, 0, 0, 0, 0, 0, 0, 0, 1774153950121, 0, 04:32:30.121
82, -0.47, -0.16, 1.34, 0.75, 1.48, 0.89, 0.34, 1.31, 0.000, 0.000, 0.000, 0, 0, 0, 0, 0, 0, 0, 0, 0, 0, 1774153950125, 0, 04:32:30.125
83, 0.01, -0.91, 0.49, 1.49, 0.64, 1.67, 0.34, 0.92, 0.000, 0.000, 0.000, 0, 0, 0, 0, 0, 0, 0, 0, 0, 0, 1774153950129, 0, 04:32:30.129
84, 0.25, -1.30, -0.44, 2.09, -0.31, 2.22, 0.21, 0.55, 0.000, 0.000, 0.000, 0, 0, 0, 0, 0, 0, 0, 0, 0, 0, 1774153950133, 0, 04:32:30.133
85, 0.43, -1.42, -1.46, 2.56, -1.36, 2.25, -0.24, 0.46, 0.000, 0.000, 0.000, 0, 0, 0, 0, 0, 0, 0, 0, 0, 0, 1774153950137, 0, 04:32:30.137
86, 0.35, -1.22, -2.16, 2.66, -2.03, 2.13, -0.84, 0.59, 0.000, 0.000, 0.000, 0, 0, 0, 0, 0, 0, 0, 0, 0, 0, 1774153950141, 0, 04:32:30.141
87, -0.04, -0.73, -2.71, 2.39, -2.68, 1.56, -1.47, 0.86, 0.000, 0.000, 0.000, 0, 0, 0, 0, 0, 0, 0, 0, 0, 0, 1774153950145, 0, 04:32:30.145
88, -0.51, -0.35, -2.86, 1.70, -2.60, 0.91, -1.99, 1.30, 0.000, 0.000, 0.000, 0, 0, 0, 0, 0, 0, 0, 0, 0, 0, 1774153950149, 0, 04:32:30.149
89, -1.14, 0.07, -2.52, 0.81, -2.38, 0.38, -1.96, 1.60, 0.000, 0.000, 0.000, 0, 0, 0, 0, 0, 0, 0, 0, 0, 0, 1774153950153, 0, 04:32:30.153
90, -1.60, 0.09, -1.84, -0.42, -1.79, -0.07, -1.66, 1.87, 0.000, 0.000, 0.000, 0, 0, 0, 0, 0, 0, 0, 0, 0, 0, 1774153950157, 0, 04:32:30.157
91, -1.72, -0.09, -1.04, -1.26, -1.06, -0.28, -0.97, 1.78, 0.000, 0.000, 0.000, 0, 0, 0, 0, 0, 0, 0, 0, 0, 0, 1774153950161, 0, 04:32:30.161
92, -1.70, -0.34, -0.21, -1.94, -0.42, -0.20, -0.05, 1.43, 0.000, 0.000, 0.000, 0, 0, 0, 0, 0, 0, 0, 0, 0, 0, 1774153950165, 0, 04:32:30.165
93, -1.28, -0.82, 0.47, -2.29, -0.01, 0.03, 0.93, 0.73, 0.000, 0.000, 0.000, 0, 0, 0, 0, 0, 0, 0, 0, 0, 0, 1774153950169, 0, 04:32:30.169
94, -0.30, -1.22, 0.93, -2.32, 0.29, 0.35, 1.77, -0.17, 0.000, 0.000, 0.000, 0, 0, 0, 0, 0, 0, 0, 0, 0, 0, 1774153950173, 0, 04:32:30.173
95, 0.67, -1.43, 0.99, -1.90, 0.33, 0.43, 2.41, -1.14, 0.000, 0.000, 0.000, 0, 0, 0, 0, 0, 0, 0, 0, 0, 0, 1774153950177, 0, 04:32:30.177
96, 1.43, -1.46, 0.78, -1.38, 0.00, 0.55, 2.77, -2.03, 0.000, 0.000, 0.000, 0, 0, 0, 0, 0, 0, 0, 0, 0, 0, 1774153950181, 0, 04:32:30.181
97, 2.05, -1.05, 0.36, -0.73, -0.12, 0.29, 2.59, -2.67, 0.000, 0.000, 0.000, 0, 0, 0, 0, 0, 0, 0, 0, 0, 0, 1774153950185, 0, 04:32:30.185
98, 2.47, -0.39, 0.01, -0.14, -0.38, -0.38, 2.22, -2.87, 0.000, 0.000, 0.000, 0, 0, 0, 0, 0, 0, 0, 0, 0, 0, 1774153950189, 0, 04:32:30.189
99, 2.41, 0.38, -0.31, 0.18, -0.40, -1.19, 1.37, -2.54, 0.000, 0.000, 0.000, 0, 0, 0, 0, 0, 0, 0, 0, 0, 0, 1774153950193, 0, 04:32:30.193
100, 1.97, 1.25, -0.41, 0.22, -0.13, -1.97, 0.71, -1.89, 0.000, 0.000, 0.000, 0, 0, 0, 0, 0, 0, 0, 0, 0, 0, 1774153950197, 0, 04:32:30.197
101, 1.20, 1.96, -0.24, 0.06, 0.45, -2.59, 0.02, -1.15, 0.000, 0.000, 0.000, 0, 0, 0, 0, 0, 0, 0, 0, 0, 0, 1774153950201, 0, 04:32:30.201
102, 0.42, 2.23, 0.16, -0.29, 1.09, -2.87, -0.45, -0.36, 0.000, 0.000, 0.000, 0, 0, 0, 0, 0, 0, 0, 0, 0, 0, 1774153950205, 0, 04:32:30.205
103, -0.38, 2.06, 0.64, -0.55, 1.90, -2.96, -0.67, 0.55, 0.000, 0.000, 0.000, 0, 0, 0, 0, 0, 0, 0, 0, 0, 0, 1774153950209, 0, 04:32:30.209
104, -1.08, 1.57, 1.09, -0.80, 2.51, -2.58, -0.65, 0.95, 0.000, 0.000, 0.000, 0, 0, 0, 0, 0, 0, 0, 0, 0, 0, 1774153950213, 0, 04:32:30.213
105, -1.29, 0.95, 1.33, -0.80, 2.78, -1.81, -0.34, 1.09, 0.000, 0.000, 0.000, 0, 0, 0, 0, 0, 0, 0, 0, 0, 0, 1774153950217, 0, 04:32:30.217
106, -1.24, -0.06, 1.29, -0.52, 2.78, -0.84, -0.08, 0.88, 0.000, 0.000, 0.000, 0, 0, 0, 0, 0, 0, 0, 0, 0, 0, 1774153950221, 0, 04:32:30.221
107, -1.11, -0.98, 0.92, 0.06, 2.24, 0.31, 0.14, 0.58, 0.000, 0.000, 0.000, 0, 0, 0, 0, 0, 0, 0, 0, 0, 0, 1774153950225, 0, 04:32:30.225
108, -0.81, -1.65, 0.29, 0.74, 1.40, 1.17, -0.03, 0.20, 0.000, 0.000, 0.000, 0, 0, 0, 0, 0, 0, 0, 0, 0, 0, 1774153950229, 0, 04:32:30.229
109, -0.50, -2.08, -0.52, 1.29, 0.40, 1.89, -0.30, -0.15, 0.000, 0.000, 0.000, 0, 0, 0, 0, 0, 0, 0, 0, 0, 0, 1774153950233, 0, 04:32:30.233
110, -0.33, -1.95, -1.42, 1.75, -0.60, 2.08, -0.94, -0.35, 0.000, 0.000, 0.000, 0, 0, 0, 0, 0, 0, 0, 0, 0, 0, 1774153950237, 0, 04:32:30.237
111, -0.53, -1.75, -2.07, 2.02, -1.47, 1.98, -1.53, -0.21, 0.000, 0.000, 0.000, 0, 0, 0, 0, 0, 0, 0, 0, 0, 0, 1774153950241, 0, 04:32:30.241
112, -0.77, -1.17, -2.51, 1.68, -2.05, 1.56, -2.30, 0.10, 0.000, 0.000, 0.000, 0, 0, 0, 0, 0, 0, 0, 0, 0, 0, 1774153950245, 0, 04:32:30.245
113, -1.29, -0.70, -2.54, 1.19, -2.18, 1.00, -2.53, 0.68, 0.000, 0.000, 0.000, 0, 0, 0, 0, 0, 0, 0, 0, 0, 0, 1774153950249, 0, 04:32:30.249
114, -1.71, -0.20, -2.00, 0.39, -1.99, 0.52, -2.74, 1.12, 0.000, 0.000, 0.000, 0, 0, 0, 0, 0, 0, 0, 0, 0, 0, 1774153950253, 0, 04:32:30.253
115, -2.20, -0.03, -1.33, -0.56, -1.58, 0.17, -2.58, 1.37, 0.000, 0.000, 0.000, 0, 0, 0, 0, 0, 0, 0, 0, 0, 0, 1774153950257, 0, 04:32:30.257
116, -2.25, -0.02, -0.44, -1.47, -0.96, 0.18, -1.81, 1.39, 0.000, 0.000, 0.000, 0, 0, 0, 0, 0, 0, 0, 0, 0, 0, 1774153950261, 0, 04:32:30.261
117, -2.15, -0.26, 0.46, -2.09, -0.37, 0.26, -0.88, 1.17, 0.000, 0.000, 0.000, 0, 0, 0, 0, 0, 0, 0, 0, 0, 0, 1774153950265, 0, 04:32:30.265
118, -1.48, -0.60, 1.27, -2.28, 0.00, 0.63, 0.18, 0.53, 0.000, 0.000, 0.000, 0, 0, 0, 0, 0, 0, 0, 0, 0, 0, 1774153950269, 0, 04:32:30.269
119, -0.60, -0.91, 1.75, -2.35, 0.08, 0.95, 1.18, -0.28, 0.000, 0.000, 0.000, 0, 0, 0, 0, 0, 0, 0, 0, 0, 0, 1774153950273, 0, 04:32:30.273
120, 0.39, -1.07, 1.77, -1.78, -0.00, 1.20, 1.90, -1.18, 0.000, 0.000, 0.000, 0, 0, 0, 0, 0, 0, 0, 0, 0, 0, 1774153950277, 0, 04:32:30.277
121, 1.46, -0.81, 1.57, -1.01, -0.39, 1.19, 2.27, -1.91, 0.000, 0.000, 0.000, 0, 0, 0, 0, 0, 0, 0, 0, 0, 0, 1774153950281, 0, 04:32:30.281
122, 2.32, -0.48, 1.23, -0.31, -0.74, 1.00, 2.23, -2.31, 0.000, 0.000, 0.000, 0, 0, 0, 0, 0, 0, 0, 0, 0, 0, 1774153950285, 0, 04:32:30.285
123, 2.70, 0.30, 0.64, 0.43, -0.98, 0.43, 1.96, -2.40, 0.000, 0.000, 0.000, 0, 0, 0, 0, 0, 0, 0, 0, 0, 0, 1774153950289, 0, 04:32:30.289
124, 2.69, 1.17, 0.45, 0.79, -0.94, -0.28, 1.39, -1.93, 0.000, 0.000, 0.000, 0, 0, 0, 0, 0, 0, 0, 0, 0, 0, 1774153950293, 0, 04:32:30.293
125, 2.42, 2.05, 0.31, 0.95, -0.77, -1.18, 0.67, -1.34, 0.000, 0.000, 0.000, 0, 0, 0, 0, 0, 0, 0, 0, 0, 0, 1774153950297, 0, 04:32:30.297
126, 1.74, 2.66, 0.13, 0.81, -0.28, -1.83, 0.13, -0.53, 0.000, 0.000, 0.000, 0, 0, 0, 0, 0, 0, 0, 0, 0, 0, 1774153950301, 0, 04:32:30.301
127, 1.00, 3.01, 0.53, 0.51, 0.50, -2.23, -0.26, 0.37, 0.000, 0.000, 0.000, 0, 0, 0, 0, 0, 0, 0, 0, 0, 0, 1774153950305, 0, 04:32:30.305
128, 0.27, 2.89, 0.88, 0.19, 1.15, -2.37, -0.27, 1.24, 0.000, 0.000, 0.000, 0, 0, 0, 0, 0, 0, 0, 0, 0, 0, 1774153950309, 0, 04:32:30.309
129, -0.36, 2.30, 1.25, 0.01, 1.88, -2.02, -0.09, 1.70, 0.000, 0.000, 0.000, 0, 0, 0, 0, 0, 0, 0, 0, 0, 0, 1774153950313, 0, 04:32:30.313
130, -0.63, 1.55, 1.40, -0.04, 2.08, -1.36, 0.22, 1.95, 0.000, 0.000, 0.000, 0, 0, 0, 0, 0, 0, 0, 0, 0, 0, 1774153950317, 0, 04:32:30.317
131, -0.54, 0.50, 1.32, 0.30, 2.02, -0.40, 0.59, 1.75, 0.000, 0.000, 0.000, 0, 0, 0, 0, 0, 0, 0, 0, 0, 0, 1774153950321, 0, 04:32:30.321
132, -0.37, -0.49, 0.81, 0.76, 1.63, 0.46, 0.79, 1.26, 0.000, 0.000, 0.000, 0, 0, 0, 0, 0, 0, 0, 0, 0, 0, 1774153950325, 0, 04:32:30.325
133, -0.15, -1.18, 0.01, 1.38, 0.88, 1.26, 0.71, 0.84, 0.000, 0.000, 0.000, 0, 0, 0, 0, 0, 0, 0, 0, 0, 0, 1774153950329, 0, 04:32:30.329
134, 0.27, -1.64, -0.90, 1.84, -0.07, 1.73, 0.52, 0.46, 0.000, 0.000, 0.000, 0, 0, 0, 0, 0, 0, 0, 0, 0, 0, 1774153950333, 0, 04:32:30.333
135, 0.33, -1.76, -1.82, 2.19, -0.84, 1.83, -0.09, 0.30, 0.000, 0.000, 0.000, 0, 0, 0, 0, 0, 0, 0, 0, 0, 0, 1774153950337, 0, 04:32:30.337
136, 0.12, -1.58, -2.69, 2.33, -1.70, 1.60, -0.67, 0.25, 0.000, 0.000, 0.000, 0, 0, 0, 0, 0, 0, 0, 0, 0, 0, 1774153950341, 0, 04:32:30.341
137, -0.32, -1.33, -3.17, 2.13, -2.12, 1.24, -1.38, 0.55, 0.000, 0.000, 0.000, 0, 0, 0, 0, 0, 0, 0, 0, 0, 0, 1774153950345, 0, 04:32:30.345
138, -0.80, -0.88, -3.05, 1.36, -2.22, 0.52, -1.78, 0.84, 0.000, 0.000, 0.000, 0, 0, 0, 0, 0, 0, 0, 0, 0, 0, 1774153950349, 0, 04:32:30.349
139, -1.45, -0.40, -2.80, 0.30, -1.91, 0.03, -1.97, 1.27, 0.000, 0.000, 0.000, 0, 0, 0, 0, 0, 0, 0, 0, 0, 0, 1774153950353, 0, 04:32:30.353
140, -1.86, -0.43, -2.07, -0.72, -1.25, -0.38, -1.79, 1.49, 0.000, 0.000, 0.000, 0, 0, 0, 0, 0, 0, 0, 0, 0, 0, 1774153950357, 0, 04:32:30.357
141, -2.20, -0.47, -1.18, -1.69, -0.68, -0.51, -1.25, 1.47, 0.000, 0.000, 0.000, 0, 0, 0, 0, 0, 0, 0, 0, 0, 0, 1774153950361, 0, 04:32:30.361
142, -2.09, -0.85, -0.22, -2.51, -0.01, -0.48, -0.40, 1.01, 0.000, 0.000, 0.000, 0, 0, 0, 0, 0, 0, 0, 0, 0, 0, 1774153950365, 0, 04:32:30.365
143, -1.64, -1.23, 0.60, -2.74, 0.50, -0.20, 0.61, 0.25, 0.000, 0.000, 0.000, 0, 0, 0, 0, 0, 0, 0, 0, 0, 0, 1774153950369, 0, 04:32:30.369
144, -0.81, -1.63, 1.03, -2.76, 0.78, 0.22, 1.47, -0.56, 0.000, 0.000, 0.000, 0, 0, 0, 0, 0, 0, 0, 0, 0, 0, 1774153950373, 0, 04:32:30.373
145, 0.11, -1.74, 1.09, -2.35, 0.64, 0.46, 2.05, -1.60, 0.000, 0.000, 0.000, 0, 0, 0, 0, 0, 0, 0, 0, 0, 0, 1774153950377, 0, 04:32:30.377
146, 1.06, -1.64, 0.97, -1.71, 0.42, 0.49, 2.38, -2.38, 0.000, 0.000, 0.000, 0, 0, 0, 0, 0, 0, 0, 0, 0, 0, 1774153950381, 0, 04:32:30.381
147, 1.70, -1.22, 0.70, -0.94, 0.08, 0.43, 2.21, -2.97, 0.000, 0.000, 0.000, 0, 0, 0, 0, 0, 0, 0, 0, 0, 0, 1774153950385, 0, 04:32:30.385
148, 2.09, -0.51, 0.35, -0.41, -0.10, -0.19, 1.77, -3.06, 0.000, 0.000, 0.000, 0, 0, 0, 0, 0, 0, 0, 0, 0, 0, 1774153950389, 0, 04:32:30.389
149, 2.07, 0.45, 0.02, -0.04, -0.28, -0.88, 0.98, -2.80, 0.000, 0.000, 0.000, 0, 0, 0, 0, 0, 0, 0, 0, 0, 0, 1774153950393, 0, 04:32:30.393
150, 1.74, 1.27, 0.09, 0.20, 0.05, -1.57, 0.32, -2.09, 0.000, 0.000, 0.000, 0, 0, 0, 0, 0, 0, 0, 0, 0, 0, 1774153950397, 0, 04:32:30.397
151, 1.11, 2.06, 0.18, -0.01, 0.48, -2.12, -0.35, -1.18, 0.000, 0.000, 0.000, 0, 0, 0, 0, 0, 0, 0, 0, 0, 0, 1774153950401, 0, 04:32:30.401
152, 0.23, 2.55, 0.70, -0.17, 1.18, -2.62, -0.73, -0.31, 0.000, 0.000, 0.000, 0, 0, 0, 0, 0, 0, 0, 0, 0, 0, 1774153950405, 0, 04:32:30.405
153, -0.50, 2.47, 1.21, -0.37, 1.77, -2.43, -0.87, 0.50, 0.000, 0.000, 0.000, 0, 0, 0, 0, 0, 0, 0, 0, 0, 0, 1774153950409, 0, 04:32:30.409
154, -0.99, 2.02, 1.57, -0.55, 2.35, -2.08, -0.80, 1.09, 0.000, 0.000, 0.000, 0, 0, 0, 0, 0, 0, 0, 0, 0, 0, 1774153950413, 0, 04:32:30.413
155, -1.26, 1.25, 1.86, -0.44, 2.59, -1.23, -0.51, 1.26, 0.000, 0.000, 0.000, 0, 0, 0, 0, 0, 0, 0, 0, 0, 0, 1774153950417, 0, 04:32:30.417
156, -1.15, 0.28, 1.75, -0.11, 2.40, -0.27, -0.09, 1.15, 0.000, 0.000, 0.000, 0, 0, 0, 0, 0, 0, 0, 0, 0, 0, 1774153950421, 0, 04:32:30.421
157, -1.01, -0.54, 1.45, 0.55, 1.86, 0.90, 0.02, 0.95, 0.000, 0.000, 0.000, 0, 0, 0, 0, 0, 0, 0, 0, 0, 0, 1774153950425, 0, 04:32:30.425
158, -0.55, -1.08, 0.71, 1.12, 1.03, 1.70, 0.07, 0.56, 0.000, 0.000, 0.000, 0, 0, 0, 0, 0, 0, 0, 0, 0, 0, 1774153950429, 0, 04:32:30.429
159, -0.19, -1.53, -0.21, 1.85, 0.02, 2.26, -0.24, 0.27, 0.000, 0.000, 0.000, 0, 0, 0, 0, 0, 0, 0, 0, 0, 0, 1774153950433, 0, 04:32:30.433
160, -0.07, -1.54, -1.08, 2.31, -1.07, 2.50, -0.80, 0.20, 0.000, 0.000, 0.000, 0, 0, 0, 0, 0, 0, 0, 0, 0, 0, 1774153950437, 0, 04:32:30.437
161, -0.06, -1.22, -1.85, 2.54, -1.92, 2.37, -1.37, 0.34, 0.000, 0.000, 0.000, 0, 0, 0, 0, 0, 0, 0, 0, 0, 0, 1774153950441, 0, 04:32:30.441
162, -0.35, -0.79, -2.30, 2.28, -2.53, 1.95, -1.86, 0.66, 0.000, 0.000, 0.000, 0, 0, 0, 0, 0, 0, 0, 0, 0, 0, 1774153950445, 0, 04:32:30.445
163, -0.79, -0.29, -2.30, 1.77, -2.61, 1.39, -2.23, 1.10, 0.000, 0.000, 0.000, 0, 0, 0, 0, 0, 0, 0, 0, 0, 0, 1774153950449, 0, 04:32:30.449
164, -1.23, 0.16, -2.04, 0.80, -2.32, 0.81, -2.29, 1.60, 0.000, 0.000, 0.000, 0, 0, 0, 0, 0, 0, 0, 0, 0, 0, 1774153950453, 0, 04:32:30.453
165, -1.69, 0.30, -1.26, -0.09, -1.84, 0.34, -1.92, 1.96, 0.000, 0.000, 0.000, 0, 0, 0, 0, 0, 0, 0, 0, 0, 0, 1774153950457, 0, 04:32:30.457
166, -1.87, 0.23, -0.56, -1.03, -1.25, 0.22, -1.26, 1.96, 0.000, 0.000, 0.000, 0, 0, 0, 0, 0, 0, 0, 0, 0, 0, 1774153950461, 0, 04:32:30.461
167, -1.61, -0.06, 0.42, -1.73, -0.63, 0.34, -0.34, 1.61, 0.000, 0.000, 0.000, 0, 0, 0, 0, 0, 0, 0, 0, 0, 0, 1774153950465, 0, 04:32:30.465
168, -0.99, -0.40, 0.97, -2.01, -0.25, 0.52, 0.79, 0.95, 0.000, 0.000, 0.000, 0, 0, 0, 0, 0, 0, 0, 0, 0, 0, 1774153950469, 0, 04:32:30.469
169, -0.24, -0.80, 1.40, -1.94, 0.05, 0.88, 1.76, 0.16, 0.000, 0.000, 0.000, 0, 0, 0, 0, 0, 0, 0, 0, 0, 0, 1774153950473, 0, 04:32:30.473
170, 0.77, -1.00, 1.43, -1.52, 0.01, 1.04, 2.45, -0.81, 0.000, 0.000, 0.000, 0, 0, 0, 0, 0, 0, 0, 0, 0, 0, 1774153950477, 0, 04:32:30.477
171, 1.80, -0.88, 1.20, -0.91, -0.32, 1.01, 2.86, -1.57, 0.000, 0.000, 0.000, 0, 0, 0, 0, 0, 0, 0, 0, 0, 0, 1774153950481, 0, 04:32:30.481
172, 2.51, -0.52, 0.82, -0.24, -0.48, 0.76, 2.79, -2.08, 0.000, 0.000, 0.000, 0, 0, 0, 0, 0, 0, 0, 0, 0, 0, 1774153950485, 0, 04:32:30.485
173, 2.95, 0.14, 0.38, 0.36, -0.83, 0.03, 2.36, -2.28, 0.000, 0.000, 0.000, 0, 0, 0, 0, 0, 0, 0, 0, 0, 0, 1774153950489, 0, 04:32:30.489
174, 2.89, 0.99, -0.01, 0.66, -0.83, -0.72, 1.75, -1.95, 0.000, 0.000, 0.000, 0, 0, 0, 0, 0, 0, 0, 0, 0, 0, 1774153950493, 0, 04:32:30.493
175, 2.51, 1.79, -0.25, 0.85, -0.51, -1.47, 1.12, -1.38, 0.000, 0.000, 0.000, 0, 0, 0, 0, 0, 0, 0, 0, 0, 0, 1774153950497, 0, 04:32:30.497
176, 1.72, 2.36, -0.14, 0.57, 0.08, -2.18, 0.50, -0.55, 0.000, 0.000, 0.000, 0, 0, 0, 0, 0, 0, 0, 0, 0, 0, 1774153950501, 0, 04:32:30.501
177, 0.93, 2.64, 0.11, 0.27, 0.95, -2.61, 0.04, 0.18, 0.000, 0.000, 0.000, 0, 0, 0, 0, 0, 0, 0, 0, 0, 0, 1774153950505, 0, 04:32:30.505
178, 0.11, 2.47, 0.52, -0.06, 1.61, -2.79, -0.10, 0.96, 0.000, 0.000, 0.000, 0, 0, 0, 0, 0, 0, 0, 0, 0, 0, 1774153950509, 0, 04:32:30.509
179, -0.55, 1.93, 0.90, -0.31, 2.23, -2.43, -0.07, 1.41, 0.000, 0.000, 0.000, 0, 0, 0, 0, 0, 0, 0, 0, 0, 0, 1774153950513, 0, 04:32:30.513
180, -0.90, 1.16, 1.14, -0.47, 2.59, -1.71, 0.33, 1.55, 0.000, 0.000, 0.000, 0, 0, 0, 0, 0, 0, 0, 0, 0, 0, 1774153950517, 0, 04:32:30.517
181, -0.85, 0.15, 1.10, -0.15, 2.67, -0.76, 0.57, 1.38, 0.000, 0.000, 0.000, 0, 0, 0, 0, 0, 0, 0, 0, 0, 0, 1774153950521, 0, 04:32:30.521
182, -0.72, -0.81, 0.59, 0.34, 2.24, 0.17, 0.70, 0.98, 0.000, 0.000, 0.000, 0, 0, 0, 0, 0, 0, 0, 0, 0, 0, 1774153950525, 0, 04:32:30.525
183, -0.47, -1.57, -0.02, 0.92, 1.42, 1.04, 0.47, 0.51, 0.000, 0.000, 0.000, 0, 0, 0, 0, 0, 0, 0, 0, 0, 0, 1774153950529, 0, 04:32:30.529
184, -0.19, -2.02, -0.81, 1.56, 0.41, 1.59, 0.22, 0.05, 0.000, 0.000, 0.000, 0, 0, 0, 0, 0, 0, 0, 0, 0, 0, 1774153950533, 0, 04:32:30.533
185, -0.05, -2.08, -1.71, 1.85, -0.51, 1.80, -0.37, -0.09, 0.000, 0.000, 0.000, 0, 0, 0, 0, 0, 0, 0, 0, 0, 0, 1774153950537, 0, 04:32:30.537
186, -0.38, -1.84, -2.51, 1.87, -1.16, 1.58, -1.05, -0.00, 0.000, 0.000, 0.000, 0, 0, 0, 0, 0, 0, 0, 0, 0, 0, 1774153950541, 0, 04:32:30.541
187, -0.74, -1.41, -2.93, 1.72, -1.69, 1.20, -1.79, 0.16, 0.000, 0.000, 0.000, 0, 0, 0, 0, 0, 0, 0, 0, 0, 0, 1774153950545, 0, 04:32:30.545
188, -1.28, -0.97, -2.83, 1.00, -1.82, 0.66, -2.27, 0.55, 0.000, 0.000, 0.000, 0, 0, 0, 0, 0, 0, 0, 0, 0, 0, 1774153950549, 0, 04:32:30.549
189, -1.76, -0.52, -2.53, 0.04, -1.48, 0.13, -2.40, 0.95, 0.000, 0.000, 0.000, 0, 0, 0, 0, 0, 0, 0, 0, 0, 0, 1774153950553, 0, 04:32:30.553
190, -2.28, -0.38, -1.60, -0.89, -0.96, -0.23, -2.25, 1.25, 0.000, 0.000, 0.000, 0, 0, 0, 0, 0, 0, 0, 0, 0, 0, 1774153950557, 0, 04:32:30.557
191, -2.45, -0.41, -0.71, -1.74, -0.43, -0.25, -1.64, 1.20, 0.000, 0.000, 0.000, 0, 0, 0, 0, 0, 0, 0, 0, 0, 0, 1774153950561, 0, 04:32:30.561
192, -2.38, -0.67, 0.34, -2.52, 0.15, -0.08, -0.74, 0.81, 0.000, 0.000, 0.000, 0, 0, 0, 0, 0, 0, 0, 0, 0, 0, 1774153950565, 0, 04:32:30.565
193, -1.83, -1.02, 0.96, -2.63, 0.52, 0.28, 0.30, 0.18, 0.000, 0.000, 0.000, 0, 0, 0, 0, 0, 0, 0, 0, 0, 0, 1774153950569, 0, 04:32:30.569
194, -0.91, -1.36, 1.59, -2.66, 0.66, 0.70, 1.19, -0.55, 0.000, 0.000, 0.000, 0, 0, 0, 0, 0, 0, 0, 0, 0, 0, 1774153950573, 0, 04:32:30.573
195, 0.08, -1.40, 1.71, -2.14, 0.48, 1.00, 1.87, -1.42, 0.000, 0.000, 0.000, 0, 0, 0, 0, 0, 0, 0, 0, 0, 0, 1774153950577, 0, 04:32:30.577
196, 1.09, -1.12, 1.57, -1.49, 0.16, 1.07, 2.13, -2.16, 0.000, 0.000, 0.000, 0, 0, 0, 0, 0, 0, 0, 0, 0, 0, 1774153950581, 0, 04:32:30.581
197, 1.85, -0.77, 1.19, -0.65, -0.23, 0.84, 2.13, -2.68, 0.000, 0.000, 0.000, 0, 0, 0, 0, 0, 0, 0, 0, 0, 0, 1774153950585, 0, 04:32:30.585
198, 2.33, 0.03, 0.90, 0.02, -0.39, 0.45, 1.56, -2.80, 0.000, 0.000, 0.000, 0, 0, 0, 0, 0, 0, 0, 0, 0, 0, 1774153950589, 0, 04:32:30.589
199, 2.38, 0.93, 0.61, 0.42, -0.61, -0.29, 1.12, -2.41, 0.000, 0.000, 0.000, 0, 0, 0, 0, 0, 0, 0, 0, 0, 0, 1774153950593, 0, 04:32:30.593
200, 2.08, 1.84, 0.56, 0.81, -0.25, -1.05, 0.44, -1.75, 0.000, 0.000, 0.000, 0, 0, 0, 0, 0, 0, 0, 0, 0, 0, 1774153950597, 0, 04:32:30.597
201, 1.47, 2.66, 0.66, 0.59, 0.07, -1.68, -0.21, -0.82, 0.000, 0.000, 0.000, 0, 0, 0, 0, 0, 0, 0, 0, 0, 0, 1774153950601, 0, 04:32:30.601
202, 0.62, 2.94, 0.92, 0.36, 0.82, -2.09, -0.54, 0.23, 0.000, 0.000, 0.000, 0, 0, 0, 0, 0, 0, 0, 0, 0, 0, 1774153950605, 0, 04:32:30.605
203, -0.10, 2.92, 1.33, 0.17, 1.39, -2.09, -0.65, 1.08, 0.000, 0.000, 0.000, 0, 0, 0, 0, 0, 0, 0, 0, 0, 0, 1774153950609, 0, 04:32:30.609
204, -0.44, 2.43, 1.70, 0.07, 1.87, -1.70, -0.47, 1.71, 0.000, 0.000, 0.000, 0, 0, 0, 0, 0, 0, 0, 0, 0, 0, 1774153950613, 0, 04:32:30.613
205, -0.65, 1.71, 2.03, 0.10, 2.27, -0.96, -0.14, 1.84, 0.000, 0.000, 0.000, 0, 0, 0, 0, 0, 0, 0, 0, 0, 0, 1774153950617, 0, 04:32:30.617
206, -0.69, 0.74, 1.81, 0.32, 2.16, 0.03, 0.27, 1.70, 0.000, 0.000, 0.000, 0, 0, 0, 0, 0, 0, 0, 0, 0, 0, 1774153950621, 0, 04:32:30.621
207, -0.45, -0.05, 1.46, 0.94, 1.56, 0.99, 0.55, 1.45, 0.000, 0.000, 0.000, 0, 0, 0, 0, 0, 0, 0, 0, 0, 0, 1774153950625, 0, 04:32:30.625
208, 0.03, -0.66, 0.66, 1.51, 0.77, 1.86, 0.57, 1.05, 0.000, 0.000, 0.000, 0, 0, 0, 0, 0, 0, 0, 0, 0, 0, 1774153950629, 0, 04:32:30.629
209, 0.41, -1.23, -0.30, 2.28, -0.25, 2.37, 0.41, 0.72, 0.000, 0.000, 0.000, 0, 0, 0, 0, 0, 0, 0, 0, 0, 0, 1774153950633, 0, 04:32:30.633
210, 0.61, -1.37, -1.31, 2.59, -1.20, 2.55, -0.15, 0.61, 0.000, 0.000, 0.000, 0, 0, 0, 0, 0, 0, 0, 0, 0, 0, 1774153950637, 0, 04:32:30.637
211, 0.45, -1.03, -2.08, 2.74, -1.98, 2.27, -0.83, 0.62, 0.000, 0.000, 0.000, 0, 0, 0, 0, 0, 0, 0, 0, 0, 0, 1774153950641, 0, 04:32:30.641
212, 0.07, -0.71, -2.61, 2.50, -2.48, 1.78, -1.27, 0.98, 0.000, 0.000, 0.000, 0, 0, 0, 0, 0, 0, 0, 0, 0, 0, 1774153950645, 0, 04:32:30.645
213, -0.48, -0.18, -2.72, 1.85, -2.63, 1.10, -1.80, 1.42, 0.000, 0.000, 0.000, 0, 0, 0, 0, 0, 0, 0, 0, 0, 0, 1774153950649, 0, 04:32:30.649
214, -1.01, 0.08, -2.36, 0.88, -2.27, 0.55, -1.85, 1.86, 0.000, 0.000, 0.000, 0, 0, 0, 0, 0, 0, 0, 0, 0, 0, 1774153950653, 0, 04:32:30.653
215, -1.49, 0.17, -1.75, -0.08, -1.64, 0.04, -1.52, 2.04, 0.000, 0.000, 0.000, 0, 0, 0, 0, 0, 0, 0, 0, 0, 0, 1774153950657, 0, 04:32:30.657
216, -1.73, 0.06, -0.94, -1.10, -0.99, -0.20, -0.86, 2.02, 0.000, 0.000, 0.000, 0, 0, 0, 0, 0, 0, 0, 0, 0, 0, 1774153950661, 0, 04:32:30.661
217, -1.45, -0.24, -0.03, -1.83, -0.33, -0.01, -0.04, 1.56, 0.000, 0.000, 0.000, 0, 0, 0, 0, 0, 0, 0, 0, 0, 0, 1774153950665, 0, 04:32:30.665
218, -0.97, -0.74, 0.63, -2.29, 0.13, 0.08, 1.00, 0.85, 0.000, 0.000, 0.000, 0, 0, 0, 0, 0, 0, 0, 0, 0, 0, 1774153950669, 0, 04:32:30.669
219, -0.22, -1.16, 1.07, -2.13, 0.38, 0.45, 1.89, 0.00, 0.000, 0.000, 0.000, 0, 0, 0, 0, 0, 0, 0, 0, 0, 0, 1774153950673, 0, 04:32:30.673
220, 0.62, -1.38, 1.11, -1.88, 0.46, 0.59, 2.64, -1.11, 0.000, 0.000, 0.000, 0, 0, 0, 0, 0, 0, 0, 0, 0, 0, 1774153950677, 0, 04:32:30.677
221, 1.60, -1.36, 0.88, -1.16, 0.14, 0.69, 2.96, -1.92, 0.000, 0.000, 0.000, 0, 0, 0, 0, 0, 0, 0, 0, 0, 0, 1774153950681, 0, 04:32:30.681
222, 2.28, -0.90, 0.64, -0.49, -0.04, 0.41, 2.72, -2.42, 0.000, 0.000, 0.000, 0, 0, 0, 0, 0, 0, 0, 0, 0, 0, 1774153950685, 0, 04:32:30.685
223, 2.62, -0.34, 0.22, 0.00, -0.25, -0.18, 2.36, -2.66, 0.000, 0.000, 0.000, 0, 0, 0, 0, 0, 0, 0, 0, 0, 0, 1774153950689, 0, 04:32:30.689
224, 2.60, 0.55, -0.12, 0.37, -0.21, -0.89, 1.65, -2.42, 0.000, 0.000, 0.000, 0, 0, 0, 0, 0, 0, 0, 0, 0, 0, 1774153950693, 0, 04:32:30.693
225, 2.13, 1.43, -0.28, 0.26, 0.03, -1.75, 0.81, -1.82, 0.000, 0.000, 0.000, 0, 0, 0, 0, 0, 0, 0, 0, 0, 0, 1774153950697, 0, 04:32:30.697
226, 1.40, 2.05, -0.12, 0.22, 0.60, -2.31, 0.07, -0.99, 0.000, 0.000, 0.000, 0, 0, 0, 0, 0, 0, 0, 0, 0, 0, 1774153950701, 0, 04:32:30.701
227, 0.55, 2.37, 0.33, -0.04, 1.33, -2.77, -0.34, -0.08, 0.000, 0.000, 0.000, 0, 0, 0, 0, 0, 0, 0, 0, 0, 0, 1774153950705, 0, 04:32:30.705
228, -0.26, 2.26, 0.74, -0.39, 2.05, -2.85, -0.50, 0.65, 0.000, 0.000, 0.000, 0, 0, 0, 0, 0, 0, 0, 0, 0, 0, 1774153950709, 0, 04:32:30.709
229, -0.97, 1.84, 1.18, -0.71, 2.69, -2.39, -0.32, 1.08, 0.000, 0.000, 0.000, 0, 0, 0, 0, 0, 0, 0, 0, 0, 0, 1774153950713, 0, 04:32:30.713
230, -1.19, 1.05, 1.57, -0.65, 3.00, -1.62, -0.17, 1.28, 0.000, 0.000, 0.000, 0, 0, 0, 0, 0, 0, 0, 0, 0, 0, 1774153950717, 0, 04:32:30.717
231, -1.24, 0.10, 1.46, -0.46, 3.00, -0.63, 0.05, 1.10, 0.000, 0.000, 0.000, 0, 0, 0, 0, 0, 0, 0, 0, 0, 0, 1774153950721, 0, 04:32:30.721
232, -1.05, -0.77, 1.20, 0.21, 2.42, 0.34, 0.25, 0.78, 0.000, 0.000, 0.000, 0, 0, 0, 0, 0, 0, 0, 0, 0, 0, 1774153950725, 0, 04:32:30.725
233, -0.58, -1.46, 0.40, 0.76, 1.49, 1.35, 0.10, 0.27, 0.000, 0.000, 0.000, 0, 0, 0, 0, 0, 0, 0, 0, 0, 0, 1774153950729, 0, 04:32:30.729
234, -0.28, -1.88, -0.35, 1.55, 0.62, 1.88, -0.15, 0.06, 0.000, 0.000, 0.000, 0, 0, 0, 0, 0, 0, 0, 0, 0, 0, 1774153950733, 0, 04:32:30.733
235, -0.16, -1.94, -1.13, 2.02, -0.47, 2.08, -0.77, -0.16, 0.000, 0.000, 0.000, 0, 0, 0, 0, 0, 0, 0, 0, 0, 0, 1774153950737, 0, 04:32:30.737
236, -0.30, -1.56, -1.93, 2.10, -1.22, 2.08, -1.44, -0.19, 0.000, 0.000, 0.000, 0, 0, 0, 0, 0, 0, 0, 0, 0, 0, 1774153950741, 0, 04:32:30.741
237, -0.58, -1.07, -2.33, 1.93, -1.80, 1.69, -2.02, 0.36, 0.000, 0.000, 0.000, 0, 0, 0, 0, 0, 0, 0, 0, 0, 0, 1774153950745, 0, 04:32:30.745
238, -1.13, -0.50, -2.36, 1.31, -2.06, 1.17, -2.39, 0.75, 0.000, 0.000, 0.000, 0, 0, 0, 0, 0, 0, 0, 0, 0, 0, 1774153950749, 0, 04:32:30.749
239, -1.65, -0.17, -1.84, 0.48, -1.80, 0.57, -2.48, 1.21, 0.000, 0.000, 0.000, 0, 0, 0, 0, 0, 0, 0, 0, 0, 0, 1774153950753, 0, 04:32:30.753
240, -2.10, 0.06, -1.19, -0.54, -1.40, 0.35, -2.34, 1.51, 0.000, 0.000, 0.000, 0, 0, 0, 0, 0, 0, 0, 0, 0, 0, 1774153950757, 0, 04:32:30.757
241, -2.16, 0.11, -0.25, -1.32, -0.79, 0.28, -1.66, 1.61, 0.000, 0.000, 0.000, 0, 0, 0, 0, 0, 0, 0, 0, 0, 0, 1774153950761, 0, 04:32:30.761
242, -1.95, -0.15, 0.61, -2.05, -0.21, 0.40, -0.66, 1.26, 0.000, 0.000, 0.000, 0, 0, 0, 0, 0, 0, 0, 0, 0, 0, 1774153950765, 0, 04:32:30.765
243, -1.42, -0.57, 1.47, -2.31, 0.18, 0.76, 0.42, 0.67, 0.000, 0.000, 0.000, 0, 0, 0, 0, 0, 0, 0, 0, 0, 0, 1774153950769, 0, 04:32:30.769
244, -0.47, -0.76, 1.90, -2.09, 0.29, 1.17, 1.24, -0.14, 0.000, 0.000, 0.000, 0, 0, 0, 0, 0, 0, 0, 0, 0, 0, 1774153950773, 0, 04:32:30.773
245, 0.58, -0.99, 1.94, -1.61, 0.12, 1.39, 2.08, -1.00, 0.000, 0.000, 0.000, 0, 0, 0, 0, 0, 0, 0, 0, 0, 0, 1774153950777, 0, 04:32:30.777
246, 1.68, -0.79, 1.69, -0.88, -0.07, 1.45, 2.43, -1.75, 0.000, 0.000, 0.000, 0, 0, 0, 0, 0, 0, 0, 0, 0, 0, 1774153950781, 0, 04:32:30.781
247, 2.45, -0.22, 1.41, -0.16, -0.56, 1.19, 2.34, -2.14, 0.000, 0.000, 0.000, 0, 0, 0, 0, 0, 0, 0, 0, 0, 0, 1774153950785, 0, 04:32:30.785
248, 2.87, 0.54, 0.86, 0.61, -0.89, 0.54, 2.01, -2.24, 0.000, 0.000, 0.000, 0, 0, 0, 0, 0, 0, 0, 0, 0, 0, 1774153950789, 0, 04:32:30.789
249, 2.93, 1.27, 0.46, 0.96, -0.92, -0.15, 1.46, -1.89, 0.000, 0.000, 0.000, 0, 0, 0, 0, 0, 0, 0, 0, 0, 0, 1774153950793, 0, 04:32:30.793
250, 2.57, 2.16, 0.26, 1.11, -0.55, -0.95, 0.83, -1.20, 0.000, 0.000, 0.000, 0, 0, 0, 0, 0, 0, 0, 0, 0, 0, 1774153950797, 0, 04:32:30.797
251, 1.93, 2.84, 0.39, 0.99, -0.12, -1.73, 0.32, -0.35, 0.000, 0.000, 0.000, 0, 0, 0, 0, 0, 0, 0, 0, 0, 0, 1774153950801, 0, 04:32:30.801
252, 1.11, 3.24, 0.62, 0.74, 0.58, -2.20, -0.05, 0.53, 0.000, 0.000, 0.000, 0, 0, 0, 0, 0, 0, 0, 0, 0, 0, 1774153950805, 0, 04:32:30.805
253, 0.42, 3.03, 1.04, 0.39, 1.29, -2.21, -0.09, 1.44, 0.000, 0.000, 0.000, 0, 0, 0, 0, 0, 0, 0, 0, 0, 0, 1774153950809, 0, 04:32:30.809
254, -0.16, 2.51, 1.45, 0.17, 1.90, -1.98, 0.04, 1.90, 0.000, 0.000, 0.000, 0, 0, 0, 0, 0, 0, 0, 0, 0, 0, 1774153950813, 0, 04:32:30.813
255, -0.46, 1.78, 1.55, 0.18, 2.22, -1.29, 0.33, 2.09, 0.000, 0.000, 0.000, 0, 0, 0, 0, 0, 0, 0, 0, 0, 0, 1774153950817, 0, 04:32:30.817
0, -0.38, 0.69, 1.45, 0.32, 2.24, -0.38, 0.69, 1.91, 0.000, 0.000, 0.000, 0, 0, 0, 0, 0, 0, 0, 0, 0, 0, 1774153950821, 0, 04:32:30.821
1, -0.17, -0.22, 0.93, 0.80, 1.78, 0.60, 0.95, 1.46, 0.000, 0.000, 0.000, 0, 0, 0, 0, 0, 0, 0, 0, 0, 0, 1774153950825, 0, 04:32:30.825
2, 0.04, -1.11, 0.21, 1.48, 1.06, 1.38, 0.94, 0.91, 0.000, 0.000, 0.000, 0, 0, 0, 0, 0, 0, 0, 0, 0, 0, 1774153950829, 0, 04:32:30.829
3, 0.38, -1.51, -0.65, 2.04, 0.13, 1.92, 0.59, 0.56, 0.000, 0.000, 0.000, 0, 0, 0, 0, 0, 0, 0, 0, 0, 0, 1774153950833, 0, 04:32:30.833
4, 0.52, -1.71, -1.71, 2.45, -0.84, 1.97, 0.01, 0.43, 0.000, 0.000, 0.000, 0, 0, 0, 0, 0, 0, 0, 0, 0, 0, 1774153950837, 0, 04:32:30.837
5, 0.36, -1.50, -2.46, 2.48, -1.64, 1.75, -0.60, 0.41, 0.000, 0.000, 0.000, 0, 0, 0, 0, 0, 0, 0, 0, 0, 0, 1774153950841, 0, 04:32:30.841
6, -0.05, -1.04, -3.02, 2.17, -2.08, 1.34, -1.25, 0.64, 0.000, 0.000, 0.000, 0, 0, 0, 0, 0, 0, 0, 0, 0, 0, 1774153950845, 0, 04:32:30.845
7, -0.68, -0.66, -2.92, 1.39, -1.91, 0.67, -1.69, 0.91, 0.000, 0.000, 0.000, 0, 0, 0, 0, 0, 0, 0, 0, 0, 0, 1774153950849, 0, 04:32:30.849
8, -1.35, -0.35, -2.64, 0.48, -1.67, 0.10, -1.93, 1.38, 0.000, 0.000, 0.000, 0, 0, 0, 0, 0, 0, 0, 0, 0, 0, 1774153950853, 0, 04:32:30.853
9, -1.87, -0.26, -1.86, -0.65, -1.10, -0.36, -1.71, 1.53, 0.000, 0.000, 0.000, 0, 0, 0, 0, 0, 0, 0, 0, 0, 0, 1774153950857, 0, 04:32:30.857
10, -2.05, -0.35, -1.01, -1.56, -0.50, -0.41, -1.06, 1.48, 0.000, 0.000, 0.000, 0, 0, 0, 0, 0, 0, 0, 0, 0, 0, 1774153950861, 0, 04:32:30.861
11, -1.94, -0.65, -0.06, -2.39, 0.18, -0.25, -0.27, 1.15, 0.000, 0.000, 0.000, 0, 0, 0, 0, 0, 0, 0, 0, 0, 0, 1774153950865, 0, 04:32:30.865
12, -1.42, -1.03, 0.70, -2.64, 0.61, -0.08, 0.68, 0.34, 0.000, 0.000, 0.000, 0, 0, 0, 0, 0, 0, 0, 0, 0, 0, 1774153950869, 0, 04:32:30.869
13, -0.65, -1.57, 1.13, -2.68, 0.79, 0.37, 1.63, -0.57, 0.000, 0.000, 0.000, 0, 0, 0, 0, 0, 0, 0, 0, 0, 0, 1774153950873, 0, 04:32:30.873
14, 0.23, -1.66, 1.37, -2.23, 0.76, 0.60, 2.13, -1.48, 0.000, 0.000, 0.000, 0, 0, 0, 0, 0, 0, 0, 0, 0, 0, 1774153950877, 0, 04:32:30.877
15, 1.10, -1.49, 1.15, -1.52, 0.60, 0.58, 2.55, -2.28, 0.000, 0.000, 0.000, 0, 0, 0, 0, 0, 0, 0, 0, 0, 0, 1774153950881, 0, 04:32:30.881
16, 1.86, -1.05, 0.91, -0.84, 0.25, 0.41, 2.29, -2.86, 0.000, 0.000, 0.000, 0, 0, 0, 0, 0, 0, 0, 0, 0, 0, 1774153950885, 0, 04:32:30.885
17, 2.27, -0.29, 0.49, -0.31, -0.08, -0.08, 1.88, -2.90, 0.000, 0.000, 0.000, 0, 0, 0, 0, 0, 0, 0, 0, 0, 0, 1774153950889, 0, 04:32:30.889
18, 2.24, 0.60, 0.27, 0.15, -0.09, -0.73, 1.13, -2.73, 0.000, 0.000, 0.000, 0, 0, 0, 0, 0, 0, 0, 0, 0, 0, 1774153950893, 0, 04:32:30.893
19, 1.83, 1.46, 0.17, 0.25, 0.18, -1.43, 0.39, -2.08, 0.000, 0.000, 0.000, 0, 0, 0, 0, 0, 0, 0, 0, 0, 0, 1774153950897, 0, 04:32:30.897
20, 1.20, 2.16, 0.38, 0.15, 0.59, -1.98, -0.28, -1.20, 0.000, 0.000, 0.000, 0, 0, 0, 0, 0, 0, 0, 0, 0, 0, 1774153950901, 0, 04:32:30.901
21, 0.38, 2.56, 0.72, -0.02, 1.27, -2.47, -0.65, -0.28, 0.000, 0.000, 0.000, 0, 0, 0, 0, 0, 0, 0, 0, 0, 0, 1774153950905, 0, 04:32:30.905
22, -0.36, 2.60, 1.28, -0.27, 1.95, -2.39, -0.84, 0.62, 0.000, 0.000, 0.000, 0, 0, 0, 0, 0, 0, 0, 0, 0, 0, 1774153950909, 0, 04:32:30.909
23, -0.84, 2.09, 1.72, -0.42, 2.48, -1.97, -0.72, 1.10, 0.000, 0.000, 0.000, 0, 0, 0, 0, 0, 0, 0, 0, 0, 0, 1774153950913, 0, 04:32:30.913
24, -1.12, 1.40, 1.96, -0.34, 2.72, -1.20, -0.32, 1.31, 0.000, 0.000, 0.000, 0, 0, 0, 0, 0, 0, 0, 0, 0, 0, 1774153950917, 0, 04:32:30.917
25, -1.03, 0.53, 1.94, -0.02, 2.54, -0.13, -0.08, 1.31, 0.000, 0.000, 0.000, 0, 0, 0, 0, 0, 0, 0, 0, 0, 0, 1774153950921, 0, 04:32:30.921
26, -0.75, -0.26, 1.56, 0.55, 2.01, 0.91, 0.10, 1.04, 0.000, 0.000, 0.000, 0, 0, 0, 0, 0, 0, 0, 0, 0, 0, 1774153950925, 0, 04:32:30.925
27, -0.42, -1.01, 0.83, 1.22, 1.11, 1.71, 0.05, 0.69, 0.000, 0.000, 0.000, 0, 0, 0, 0, 0, 0, 0, 0, 0, 0, 1774153950929, 0, 04:32:30.929
28, -0.03, -1.31, -0.03, 1.93, 0.05, 2.39, -0.05, 0.39, 0.000, 0.000, 0.000, 0, 0, 0, 0, 0, 0, 0, 0, 0, 0, 1774153950933, 0, 04:32:30.933
29, 0.25, -1.31, -0.99, 2.38, -0.93, 2.55, -0.65, 0.20, 0.000, 0.000, 0.000, 0, 0, 0, 0, 0, 0, 0, 0, 0, 0, 1774153950937, 0, 04:32:30.937
30, 0.08, -1.08, -1.59, 2.58, -1.75, 2.46, -1.14, 0.39, 0.000, 0.000, 0.000, 0, 0, 0, 0, 0, 0, 0, 0, 0, 0, 1774153950941, 0, 04:32:30.941
31, -0.26, -0.62, -2.11, 2.40, -2.40, 2.09, -1.79, 0.76, 0.000, 0.000, 0.000, 0, 0, 0, 0, 0, 0, 0, 0, 0, 0, 1774153950945, 0, 04:32:30.945
32, -0.72, -0.11, -2.21, 1.80, -2.48, 1.48, -2.18, 1.19, 0.000, 0.000, 0.000, 0, 0, 0, 0, 0, 0, 0, 0, 0, 0, 1774153950949, 0, 04:32:30.949
33, -1.14, 0.28, -1.82, 1.08, -2.23, 0.91, -2.23, 1.69, 0.000, 0.000, 0.000, 0, 0, 0, 0, 0, 0, 0, 0, 0, 0, 1774153950953, 0, 04:32:30.953
34, -1.54, 0.52, -1.31, -0.11, -1.86, 0.47, -1.80, 1.93, 0.000, 0.000, 0.000, 0, 0, 0, 0, 0, 0, 0, 0, 0, 0, 1774153950957, 0, 04:32:30.957
35, -1.68, 0.41, -0.50, -0.96, -1.16, 0.33, -1.31, 1.98, 0.000, 0.000, 0.000, 0, 0, 0, 0, 0, 0, 0, 0, 0, 0, 1774153950961, 0, 04:32:30.961
36, -1.41, 0.12, 0.44, -1.68, -0.47, 0.42, -0.23, 1.70, 0.000, 0.000, 0.000, 0, 0, 0, 0, 0, 0, 0, 0, 0, 0, 1774153950965, 0, 04:32:30.965
37, -1.03, -0.35, 1.07, -1.95, -0.09, 0.65, 0.81, 1.11, 0.000, 0.000, 0.000, 0, 0, 0, 0, 0, 0, 0, 0, 0, 0, 1774153950969, 0, 04:32:30.969
38, -0.03, -0.71, 1.51, -1.87, -0.03, 0.91, 1.80, 0.23, 0.000, 0.000, 0.000, 0, 0, 0, 0, 0, 0, 0, 0, 0, 0, 1774153950973, 0, 04:32:30.973
39, 1.02, -0.76, 1.58, -1.39, 0.03, 1.12, 2.54, -0.72, 0.000, 0.000, 0.000, 0, 0, 0, 0, 0, 0, 0, 0, 0, 0, 1774153950977, 0, 04:32:30.977
40, 1.85, -0.79, 1.37, -0.82, -0.27, 1.03, 2.88, -1.56, 0.000, 0.000, 0.000, 0, 0, 0, 0, 0, 0, 0, 0, 0, 0, 1774153950981, 0, 04:32:30.981
41, 2.63, -0.43, 0.84, -0.12, -0.49, 0.74, 2.85, -2.09, 0.000, 0.000, 0.000, 0, 0, 0, 0, 0, 0, 0, 0, 0, 0, 1774153950985, 0, 04:32:30.985
42, 3.01, 0.34, 0.44, 0.45, -0.75, 0.21, 2.44, -2.30, 0.000, 0.000, 0.000, 0, 0, 0, 0, 0, 0, 0, 0, 0, 0, 1774153950989, 0, 04:32:30.989
43, 2.98, 1.10, 0.04, 0.76, -0.70, -0.58, 1.74, -2.01, 0.000, 0.000, 0.000, 0, 0, 0, 0, 0, 0, 0, 0, 0, 0, 1774153950993, 0, 04:32:30.993
44, 2.59, 1.91, -0.11, 0.87, -0.42, -1.47, 1.11, -1.40, 0.000, 0.000, 0.000, 0, 0, 0, 0, 0, 0, 0, 0, 0, 0, 1774153950997, 0, 04:32:30.997
45, 1.96, 2.48, -0.07, 0.70, 0.17, -2.14, 0.51, -0.51, 0.000, 0.000, 0.000, 0, 0, 0, 0, 0, 0, 0, 0, 0, 0, 1774153951001, 0, 04:32:31.001
46, 1.14, 2.74, 0.32, 0.37, 0.89, -2.64, 0.05, 0.36, 0.000, 0.000, 0.000, 0, 0, 0, 0, 0, 0, 0, 0, 0, 0, 1774153951005, 0, 04:32:31.005
47, 0.23, 2.61, 0.66, 0.02, 1.68, -2.75, 0.02, 1.06, 0.000, 0.000, 0.000, 0, 0, 0, 0, 0, 0, 0, 0, 0, 0, 1774153951009, 0, 04:32:31.009
48, -0.28, 2.01, 1.13, -0.28, 2.28, -2.45, 0.10, 1.53, 0.000, 0.000, 0.000, 0, 0, 0, 0, 0, 0, 0, 0, 0, 0, 1774153951013, 0, 04:32:31.013
49, -0.71, 1.23, 1.22, -0.32, 2.72, -1.63, 0.32, 1.59, 0.000, 0.000, 0.000, 0, 0, 0, 0, 0, 0, 0, 0, 0, 0, 1774153951017, 0, 04:32:31.017
50, -0.68, 0.25, 1.21, -0.15, 2.68, -0.74, 0.59, 1.34, 0.000, 0.000, 0.000, 0, 0, 0, 0, 0, 0, 0, 0, 0, 0, 1774153951021, 0, 04:32:31.021
51, -0.59, -0.64, 0.77, 0.42, 2.17, 0.29, 0.69, 0.98, 0.000, 0.000, 0.000, 0, 0, 0, 0, 0, 0, 0, 0, 0, 0, 1774153951025, 0, 04:32:31.025
52, -0.30, -1.48, 0.06, 0.95, 1.54, 1.14, 0.66, 0.46, 0.000, 0.000, 0.000, 0, 0, 0, 0, 0, 0, 0, 0, 0, 0, 1774153951029, 0, 04:32:31.029
53, -0.06, -2.04, -0.77, 1.60, 0.54, 1.54, 0.32, 0.12, 0.000, 0.000, 0.000, 0, 0, 0, 0, 0, 0, 0, 0, 0, 0, 1774153951033, 0, 04:32:31.033
54, 0.15, -2.02, -1.70, 2.02, -0.40, 1.74, -0.31, -0.14, 0.000, 0.000, 0.000, 0, 0, 0, 0, 0, 0, 0, 0, 0, 0, 1774153951037, 0, 04:32:31.037
55, -0.12, -1.66, -2.52, 2.03, -1.16, 1.52, -1.09, -0.10, 0.000, 0.000, 0.000, 0, 0, 0, 0, 0, 0, 0, 0, 0, 0, 1774153951041, 0, 04:32:31.041
56, -0.60, -1.32, -2.94, 1.69, -1.66, 1.29, -1.76, 0.21, 0.000, 0.000, 0.000, 0, 0, 0, 0, 0, 0, 0, 0, 0, 0, 1774153951045, 0, 04:32:31.045
57, -1.08, -0.92, -2.71, 1.09, -1.73, 0.74, -2.22, 0.54, 0.000, 0.000, 0.000, 0, 0, 0, 0, 0, 0, 0, 0, 0, 0, 1774153951049, 0, 04:32:31.049
58, -1.74, -0.47, -2.28, 0.19, -1.54, 0.21, -2.38, 1.02, 0.000, 0.000, 0.000, 0, 0, 0, 0, 0, 0, 0, 0, 0, 0, 1774153951053, 0, 04:32:31.053
59, -2.22, -0.34, -1.49, -0.85, -0.97, -0.18, -2.21, 1.16, 0.000, 0.000, 0.000, 0, 0, 0, 0, 0, 0, 0, 0, 0, 0, 1774153951057, 0, 04:32:31.057
60, -2.35, -0.42, -0.63, -1.78, -0.39, -0.22, -1.64, 1.23, 0.000, 0.000, 0.000, 0, 0, 0, 0, 0, 0, 0, 0, 0, 0, 1774153951061, 0, 04:32:31.061
61, -2.23, -0.62, 0.26, -2.38, 0.21, -0.04, -0.67, 0.87, 0.000, 0.000, 0.000, 0, 0, 0, 0, 0, 0, 0, 0, 0, 0, 1774153951065, 0, 04:32:31.065
62, -1.67, -0.95, 1.09, -2.67, 0.59, 0.33, 0.18, 0.27, 0.000, 0.000, 0.000, 0, 0, 0, 0, 0, 0, 0, 0, 0, 0, 1774153951069, 0, 04:32:31.069
63, -0.84, -1.34, 1.61, -2.59, 0.76, 0.70, 1.10, -0.68, 0.000, 0.000, 0.000, 0, 0, 0, 0, 0, 0, 0, 0, 0, 0, 1774153951073, 0, 04:32:31.073
64, 0.18, -1.42, 1.73, -2.18, 0.61, 1.03, 1.74, -1.58, 0.000, 0.000, 0.000, 0, 0, 0, 0, 0, 0, 0, 0, 0, 0, 1774153951077, 0, 04:32:31.077
65, 1.17, -1.18, 1.72, -1.37, 0.23, 1.08, 2.07, -2.23, 0.000, 0.000, 0.000, 0, 0, 0, 0, 0, 0, 0, 0, 0, 0, 1774153951081, 0, 04:32:31.081
66, 1.85, -0.71, 1.42, -0.66, -0.16, 0.95, 2.10, -2.75, 0.000, 0.000, 0.000, 0, 0, 0, 0, 0, 0, 0, 0, 0, 0, 1774153951085, 0, 04:32:31.085
67, 2.43, 0.11, 0.95, 0.07, -0.43, 0.44, 1.69, -2.79, 0.000, 0.000, 0.000, 0, 0, 0, 0, 0, 0, 0, 0, 0, 0, 1774153951089, 0, 04:32:31.089
68, 2.40, 0.96, 0.63, 0.53, -0.55, -0.34, 1.00, -2.46, 0.000, 0.000, 0.000, 0, 0, 0, 0, 0, 0, 0, 0, 0, 0, 1774153951093, 0, 04:32:31.093
69, 2.05, 1.96, 0.46, 0.62, -0.38, -0.97, 0.34, -1.68, 0.000, 0.000, 0.000, 0, 0, 0, 0, 0, 0, 0, 0, 0, 0, 1774153951097, 0, 04:32:31.097
70, 1.50, 2.59, 0.73, 0.64, 0.01, -1.63, -0.26, -0.78, 0.000, 0.000, 0.000, 0, 0, 0, 0, 0, 0, 0, 0, 0, 0, 1774153951101, 0, 04:32:31.101
71, 0.77, 3.11, 0.99, 0.43, 0.67, -2.04, -0.67, 0.19, 0.000, 0.000, 0.000, 0, 0, 0, 0, 0, 0, 0, 0, 0, 0, 1774153951105, 0, 04:32:31.105
72, 0.04, 2.91, 1.41, 0.18, 1.50, -2.06, -0.57, 0.95, 0.000, 0.000, 0.000, 0, 0, 0, 0, 0, 0, 0, 0, 0, 0, 1774153951109, 0, 04:32:31.109
73, -0.38, 2.50, 1.82, 0.00, 1.91, -1.61, -0.43, 1.59, 0.000, 0.000, 0.000, 0, 0, 0, 0, 0, 0, 0, 0, 0, 0, 1774153951113, 0, 04:32:31.113
74, -0.71, 1.81, 1.96, -0.03, 2.30, -1.04, -0.13, 1.75, 0.000, 0.000, 0.000, 0, 0, 0, 0, 0, 0, 0, 0, 0, 0, 1774153951117, 0, 04:32:31.117
75, -0.60, 0.95, 1.88, 0.45, 2.11, 0.03, 0.19, 1.68, 0.000, 0.000, 0.000, 0, 0, 0, 0, 0, 0, 0, 0, 0, 0, 1774153951121, 0, 04:32:31.121
76, -0.33, -0.02, 1.35, 0.96, 1.59, 0.92, 0.47, 1.33, 0.000, 0.000, 0.000, 0, 0, 0, 0, 0, 0, 0, 0, 0, 0, 1774153951125, 0, 04:32:31.125
77, 0.08, -0.73, 0.71, 1.55, 0.70, 1.81, 0.48, 1.00, 0.000, 0.000, 0.000, 0, 0, 0, 0, 0, 0, 0, 0, 0, 0, 1774153951129, 0, 04:32:31.129
78, 0.43, -1.18, -0.30, 2.20, -0.22, 2.28, 0.27, 0.73, 0.000, 0.000, 0.000, 0, 0, 0, 0, 0, 0, 0, 0, 0, 0, 1774153951133, 0, 04:32:31.133
79, 0.52, -1.31, -1.22, 2.68, -1.12, 2.37, -0.19, 0.54, 0.000, 0.000, 0.000, 0, 0, 0, 0, 0, 0, 0, 0, 0, 0, 1774153951137, 0, 04:32:31.137
80, 0.51, -1.07, -2.10, 2.81, -1.93, 2.18, -0.83, 0.59, 0.000, 0.000, 0.000, 0, 0, 0, 0, 0, 0, 0, 0, 0, 0, 1774153951141, 0, 04:32:31.141
81, 0.13, -0.70, -2.60, 2.47, -2.47, 1.76, -1.47, 0.91, 0.000, 0.000, 0.000, 0, 0, 0, 0, 0, 0, 0, 0, 0, 0, 1774153951145, 0, 04:32:31.145
82, -0.49, -0.27, -2.75, 1.87, -2.62, 1.07, -1.70, 1.32, 0.000, 0.000, 0.000, 0, 0, 0, 0, 0, 0, 0, 0, 0, 0, 1774153951149, 0, 04:32:31.149
83, -1.07, 0.13, -2.35, 0.80, -2.32, 0.44, -1.87, 1.72, 0.000, 0.000, 0.000, 0, 0, 0, 0, 0, 0, 0, 0, 0, 0, 1774153951153, 0, 04:32:31.153
84, -1.44, 0.17, -1.78, -0.22, -1.75, -0.01, -1.57, 1.95, 0.000, 0.000, 0.000, 0, 0, 0, 0, 0, 0, 0, 0, 0, 0, 1774153951157, 0, 04:32:31.157
85, -1.66, 0.10, -0.93, -1.24, -0.95, -0.15, -0.96, 1.84, 0.000, 0.000, 0.000, 0, 0, 0, 0, 0, 0, 0, 0, 0, 0, 1774153951161, 0, 04:32:31.161
86, -1.52, -0.33, -0.06, -1.92, -0.27, -0.05, -0.11, 1.50, 0.000, 0.000, 0.000, 0, 0, 0, 0, 0, 0, 0, 0, 0, 0, 1774153951165, 0, 04:32:31.165
87, -1.03, -0.70, 0.63, -2.19, 0.14, -0.01, 0.96, 0.70, 0.000, 0.000, 0.000, 0, 0, 0, 0, 0, 0, 0, 0, 0, 0, 1774153951169, 0, 04:32:31.169
88, -0.23, -1.15, 0.96, -2.14, 0.36, 0.51, 1.87, -0.12, 0.000, 0.000, 0.000, 0, 0, 0, 0, 0, 0, 0, 0, 0, 0, 1774153951173, 0, 04:32:31.173
89, 0.73, -1.29, 1.11, -1.86, 0.42, 0.59, 2.57, -1.19, 0.000, 0.000, 0.000, 0, 0, 0, 0, 0, 0, 0, 0, 0, 0, 1774153951177, 0, 04:32:31.177
90, 1.53, -1.28, 0.96, -1.31, 0.10, 0.60, 2.87, -1.94, 0.000, 0.000, 0.000, 0, 0, 0, 0, 0, 0, 0, 0, 0, 0, 1774153951181, 0, 04:32:31.181
91, 2.22, -0.86, 0.53, -0.63, -0.12, 0.26, 2.74, -2.68, 0.000, 0.000, 0.000, 0, 0, 0, 0, 0, 0, 0, 0, 0, 0, 1774153951185, 0, 04:32:31.185
92, 2.57, -0.29, 0.12, -0.03, -0.28, -0.27, 2.27, -2.66, 0.000, 0.000, 0.000, 0, 0, 0, 0, 0, 0, 0, 0, 0, 0, 1774153951189, 0, 04:32:31.189
93, 2.57, 0.57, -0.18, 0.21, -0.32, -1.01, 1.61, -2.58, 0.000, 0.000, 0.000, 0, 0, 0, 0, 0, 0, 0, 0, 0, 0, 1774153951193, 0, 04:32:31.193
94, 2.17, 1.34, -0.29, 0.33, -0.02, -1.87, 0.77, -1.97, 0.000, 0.000, 0.000, 0, 0, 0, 0, 0, 0, 0, 0, 0, 0, 1774153951197, 0, 04:32:31.197
